Created as New Dataset,Sample 037 By Analyst Date Thursday, March 27 2025
cm-1,A
4000.00,-0.0970
3999.00,-0.0970
3998.00,-0.0970
3997.00,-0.0970
3996.00,-0.0970
3995.00,-0.0970
3994.00,-0.0970
3993.00,-0.0970
3992.00,-0.0969
3991.00,-0.0969
3990.00,-0.0969
3989.00,-0.0969
3988.00,-0.0969
3987.00,-0.0968
3986.00,-0.0968
3985.00,-0.0968
3984.00,-0.0968
3983.00,-0.0968
3982.00,-0.0968
3981.00,-0.0967
3980.00,-0.0967
3979.00,-0.0967
3978.00,-0.0967
3977.00,-0.0966
3976.00,-0.0966
3975.00,-0.0966
3974.00,-0.0966
3973.00,-0.0966
3972.00,-0.0966
3971.00,-0.0965
3970.00,-0.0965
3969.00,-0.0965
3968.00,-0.0965
3967.00,-0.0965
3966.00,-0.0965
3965.00,-0.0965
3964.00,-0.0965
3963.00,-0.0965
3962.00,-0.0965
3961.00,-0.0965
3960.00,-0.0965
3959.00,-0.0965
3958.00,-0.0965
3957.00,-0.0965
3956.00,-0.0965
3955.00,-0.0965
3954.00,-0.0965
3953.00,-0.0965
3952.00,-0.0965
3951.00,-0.0965
3950.00,-0.0965
3949.00,-0.0965
3948.00,-0.0965
3947.00,-0.0965
3946.00,-0.0965
3945.00,-0.0965
3944.00,-0.0965
3943.00,-0.0965
3942.00,-0.0965
3941.00,-0.0965
3940.00,-0.0965
3939.00,-0.0965
3938.00,-0.0965
3937.00,-0.0965
3936.00,-0.0965
3935.00,-0.0964
3934.00,-0.0964
3933.00,-0.0964
3932.00,-0.0964
3931.00,-0.0964
3930.00,-0.0963
3929.00,-0.0963
3928.00,-0.0963
3927.00,-0.0963
3926.00,-0.0963
3925.00,-0.0962
3924.00,-0.0962
3923.00,-0.0962
3922.00,-0.0962
3921.00,-0.0962
3920.00,-0.0962
3919.00,-0.0961
3918.00,-0.0961
3917.00,-0.0961
3916.00,-0.0961
3915.00,-0.0960
3914.00,-0.0960
3913.00,-0.0960
3912.00,-0.0960
3911.00,-0.0960
3910.00,-0.0961
3909.00,-0.0961
3908.00,-0.0961
3907.00,-0.0961
3906.00,-0.0961
3905.00,-0.0961
3904.00,-0.0960
3903.00,-0.0960
3902.00,-0.0960
3901.00,-0.0960
3900.00,-0.0959
3899.00,-0.0959
3898.00,-0.0959
3897.00,-0.0960
3896.00,-0.0960
3895.00,-0.0961
3894.00,-0.0961
3893.00,-0.0961
3892.00,-0.0961
3891.00,-0.0960
3890.00,-0.0961
3889.00,-0.0961
3888.00,-0.0961
3887.00,-0.0961
3886.00,-0.0960
3885.00,-0.0960
3884.00,-0.0960
3883.00,-0.0961
3882.00,-0.0960
3881.00,-0.0960
3880.00,-0.0959
3879.00,-0.0960
3878.00,-0.0960
3877.00,-0.0960
3876.00,-0.0960
3875.00,-0.0960
3874.00,-0.0960
3873.00,-0.0960
3872.00,-0.0960
3871.00,-0.0960
3870.00,-0.0959
3869.00,-0.0959
3868.00,-0.0959
3867.00,-0.0959
3866.00,-0.0959
3865.00,-0.0958
3864.00,-0.0958
3863.00,-0.0958
3862.00,-0.0959
3861.00,-0.0959
3860.00,-0.0959
3859.00,-0.0958
3858.00,-0.0958
3857.00,-0.0958
3856.00,-0.0959
3855.00,-0.0959
3854.00,-0.0957
3853.00,-0.0956
3852.00,-0.0957
3851.00,-0.0959
3850.00,-0.0959
3849.00,-0.0958
3848.00,-0.0958
3847.00,-0.0958
3846.00,-0.0958
3845.00,-0.0959
3844.00,-0.0959
3843.00,-0.0959
3842.00,-0.0959
3841.00,-0.0960
3840.00,-0.0959
3839.00,-0.0959
3838.00,-0.0958
3837.00,-0.0958
3836.00,-0.0958
3835.00,-0.0958
3834.00,-0.0958
3833.00,-0.0957
3832.00,-0.0957
3831.00,-0.0957
3830.00,-0.0957
3829.00,-0.0957
3828.00,-0.0957
3827.00,-0.0956
3826.00,-0.0956
3825.00,-0.0956
3824.00,-0.0957
3823.00,-0.0957
3822.00,-0.0956
3821.00,-0.0955
3820.00,-0.0955
3819.00,-0.0955
3818.00,-0.0954
3817.00,-0.0954
3816.00,-0.0953
3815.00,-0.0953
3814.00,-0.0953
3813.00,-0.0953
3812.00,-0.0953
3811.00,-0.0953
3810.00,-0.0953
3809.00,-0.0953
3808.00,-0.0953
3807.00,-0.0953
3806.00,-0.0953
3805.00,-0.0954
3804.00,-0.0954
3803.00,-0.0953
3802.00,-0.0952
3801.00,-0.0952
3800.00,-0.0952
3799.00,-0.0953
3798.00,-0.0953
3797.00,-0.0952
3796.00,-0.0952
3795.00,-0.0952
3794.00,-0.0953
3793.00,-0.0953
3792.00,-0.0953
3791.00,-0.0953
3790.00,-0.0953
3789.00,-0.0953
3788.00,-0.0953
3787.00,-0.0953
3786.00,-0.0954
3785.00,-0.0953
3784.00,-0.0954
3783.00,-0.0954
3782.00,-0.0954
3781.00,-0.0953
3780.00,-0.0953
3779.00,-0.0953
3778.00,-0.0953
3777.00,-0.0953
3776.00,-0.0953
3775.00,-0.0953
3774.00,-0.0953
3773.00,-0.0953
3772.00,-0.0953
3771.00,-0.0953
3770.00,-0.0953
3769.00,-0.0953
3768.00,-0.0953
3767.00,-0.0953
3766.00,-0.0953
3765.00,-0.0952
3764.00,-0.0952
3763.00,-0.0953
3762.00,-0.0953
3761.00,-0.0953
3760.00,-0.0953
3759.00,-0.0952
3758.00,-0.0952
3757.00,-0.0952
3756.00,-0.0952
3755.00,-0.0952
3754.00,-0.0952
3753.00,-0.0952
3752.00,-0.0952
3751.00,-0.0951
3750.00,-0.0950
3749.00,-0.0950
3748.00,-0.0950
3747.00,-0.0949
3746.00,-0.0948
3745.00,-0.0947
3744.00,-0.0946
3743.00,-0.0947
3742.00,-0.0949
3741.00,-0.0949
3740.00,-0.0948
3739.00,-0.0948
3738.00,-0.0948
3737.00,-0.0948
3736.00,-0.0948
3735.00,-0.0948
3734.00,-0.0947
3733.00,-0.0946
3732.00,-0.0946
3731.00,-0.0946
3730.00,-0.0946
3729.00,-0.0946
3728.00,-0.0946
3727.00,-0.0946
3726.00,-0.0946
3725.00,-0.0946
3724.00,-0.0946
3723.00,-0.0945
3722.00,-0.0945
3721.00,-0.0945
3720.00,-0.0945
3719.00,-0.0945
3718.00,-0.0945
3717.00,-0.0945
3716.00,-0.0946
3715.00,-0.0946
3714.00,-0.0946
3713.00,-0.0946
3712.00,-0.0946
3711.00,-0.0946
3710.00,-0.0946
3709.00,-0.0947
3708.00,-0.0947
3707.00,-0.0947
3706.00,-0.0947
3705.00,-0.0948
3704.00,-0.0948
3703.00,-0.0949
3702.00,-0.0949
3701.00,-0.0950
3700.00,-0.0951
3699.00,-0.0951
3698.00,-0.0952
3697.00,-0.0953
3696.00,-0.0954
3695.00,-0.0955
3694.00,-0.0956
3693.00,-0.0957
3692.00,-0.0958
3691.00,-0.0959
3690.00,-0.0959
3689.00,-0.0959
3688.00,-0.0959
3687.00,-0.0961
3686.00,-0.0961
3685.00,-0.0962
3684.00,-0.0962
3683.00,-0.0963
3682.00,-0.0963
3681.00,-0.0964
3680.00,-0.0965
3679.00,-0.0966
3678.00,-0.0966
3677.00,-0.0966
3676.00,-0.0965
3675.00,-0.0964
3674.00,-0.0964
3673.00,-0.0965
3672.00,-0.0964
3671.00,-0.0963
3670.00,-0.0963
3669.00,-0.0963
3668.00,-0.0963
3667.00,-0.0963
3666.00,-0.0963
3665.00,-0.0962
3664.00,-0.0962
3663.00,-0.0962
3662.00,-0.0962
3661.00,-0.0962
3660.00,-0.0962
3659.00,-0.0962
3658.00,-0.0961
3657.00,-0.0961
3656.00,-0.0960
3655.00,-0.0960
3654.00,-0.0960
3653.00,-0.0960
3652.00,-0.0960
3651.00,-0.0960
3650.00,-0.0959
3649.00,-0.0958
3648.00,-0.0958
3647.00,-0.0957
3646.00,-0.0957
3645.00,-0.0957
3644.00,-0.0956
3643.00,-0.0956
3642.00,-0.0956
3641.00,-0.0956
3640.00,-0.0957
3639.00,-0.0957
3638.00,-0.0957
3637.00,-0.0957
3636.00,-0.0957
3635.00,-0.0957
3634.00,-0.0957
3633.00,-0.0957
3632.00,-0.0957
3631.00,-0.0957
3630.00,-0.0957
3629.00,-0.0956
3628.00,-0.0955
3627.00,-0.0956
3626.00,-0.0957
3625.00,-0.0957
3624.00,-0.0956
3623.00,-0.0957
3622.00,-0.0957
3621.00,-0.0957
3620.00,-0.0957
3619.00,-0.0957
3618.00,-0.0957
3617.00,-0.0958
3616.00,-0.0958
3615.00,-0.0958
3614.00,-0.0958
3613.00,-0.0957
3612.00,-0.0957
3611.00,-0.0957
3610.00,-0.0957
3609.00,-0.0957
3608.00,-0.0957
3607.00,-0.0956
3606.00,-0.0956
3605.00,-0.0956
3604.00,-0.0956
3603.00,-0.0957
3602.00,-0.0957
3601.00,-0.0957
3600.00,-0.0957
3599.00,-0.0957
3598.00,-0.0958
3597.00,-0.0958
3596.00,-0.0958
3595.00,-0.0958
3594.00,-0.0958
3593.00,-0.0958
3592.00,-0.0958
3591.00,-0.0958
3590.00,-0.0958
3589.00,-0.0958
3588.00,-0.0958
3587.00,-0.0958
3586.00,-0.0958
3585.00,-0.0959
3584.00,-0.0959
3583.00,-0.0959
3582.00,-0.0959
3581.00,-0.0960
3580.00,-0.0960
3579.00,-0.0961
3578.00,-0.0961
3577.00,-0.0962
3576.00,-0.0962
3575.00,-0.0962
3574.00,-0.0962
3573.00,-0.0962
3572.00,-0.0962
3571.00,-0.0963
3570.00,-0.0963
3569.00,-0.0963
3568.00,-0.0963
3567.00,-0.0963
3566.00,-0.0963
3565.00,-0.0963
3564.00,-0.0963
3563.00,-0.0963
3562.00,-0.0963
3561.00,-0.0963
3560.00,-0.0963
3559.00,-0.0964
3558.00,-0.0964
3557.00,-0.0964
3556.00,-0.0964
3555.00,-0.0964
3554.00,-0.0964
3553.00,-0.0964
3552.00,-0.0964
3551.00,-0.0964
3550.00,-0.0964
3549.00,-0.0963
3548.00,-0.0963
3547.00,-0.0963
3546.00,-0.0963
3545.00,-0.0963
3544.00,-0.0963
3543.00,-0.0962
3542.00,-0.0962
3541.00,-0.0962
3540.00,-0.0963
3539.00,-0.0963
3538.00,-0.0963
3537.00,-0.0963
3536.00,-0.0963
3535.00,-0.0963
3534.00,-0.0963
3533.00,-0.0963
3532.00,-0.0963
3531.00,-0.0964
3530.00,-0.0964
3529.00,-0.0964
3528.00,-0.0964
3527.00,-0.0964
3526.00,-0.0964
3525.00,-0.0964
3524.00,-0.0964
3523.00,-0.0964
3522.00,-0.0964
3521.00,-0.0964
3520.00,-0.0964
3519.00,-0.0964
3518.00,-0.0963
3517.00,-0.0963
3516.00,-0.0963
3515.00,-0.0963
3514.00,-0.0963
3513.00,-0.0963
3512.00,-0.0963
3511.00,-0.0963
3510.00,-0.0963
3509.00,-0.0963
3508.00,-0.0962
3507.00,-0.0962
3506.00,-0.0962
3505.00,-0.0962
3504.00,-0.0961
3503.00,-0.0961
3502.00,-0.0961
3501.00,-0.0961
3500.00,-0.0961
3499.00,-0.0961
3498.00,-0.0961
3497.00,-0.0961
3496.00,-0.0961
3495.00,-0.0961
3494.00,-0.0961
3493.00,-0.0961
3492.00,-0.0961
3491.00,-0.0961
3490.00,-0.0961
3489.00,-0.0961
3488.00,-0.0961
3487.00,-0.0962
3486.00,-0.0962
3485.00,-0.0962
3484.00,-0.0962
3483.00,-0.0962
3482.00,-0.0963
3481.00,-0.0963
3480.00,-0.0963
3479.00,-0.0963
3478.00,-0.0963
3477.00,-0.0964
3476.00,-0.0964
3475.00,-0.0964
3474.00,-0.0964
3473.00,-0.0965
3472.00,-0.0965
3471.00,-0.0965
3470.00,-0.0965
3469.00,-0.0965
3468.00,-0.0966
3467.00,-0.0966
3466.00,-0.0966
3465.00,-0.0966
3464.00,-0.0967
3463.00,-0.0967
3462.00,-0.0967
3461.00,-0.0967
3460.00,-0.0967
3459.00,-0.0967
3458.00,-0.0967
3457.00,-0.0967
3456.00,-0.0967
3455.00,-0.0967
3454.00,-0.0967
3453.00,-0.0967
3452.00,-0.0968
3451.00,-0.0968
3450.00,-0.0968
3449.00,-0.0968
3448.00,-0.0968
3447.00,-0.0968
3446.00,-0.0968
3445.00,-0.0968
3444.00,-0.0968
3443.00,-0.0968
3442.00,-0.0968
3441.00,-0.0969
3440.00,-0.0969
3439.00,-0.0969
3438.00,-0.0969
3437.00,-0.0969
3436.00,-0.0969
3435.00,-0.0969
3434.00,-0.0969
3433.00,-0.0970
3432.00,-0.0970
3431.00,-0.0970
3430.00,-0.0970
3429.00,-0.0970
3428.00,-0.0970
3427.00,-0.0970
3426.00,-0.0970
3425.00,-0.0971
3424.00,-0.0971
3423.00,-0.0971
3422.00,-0.0970
3421.00,-0.0970
3420.00,-0.0970
3419.00,-0.0970
3418.00,-0.0970
3417.00,-0.0970
3416.00,-0.0969
3415.00,-0.0969
3414.00,-0.0969
3413.00,-0.0968
3412.00,-0.0968
3411.00,-0.0968
3410.00,-0.0967
3409.00,-0.0967
3408.00,-0.0966
3407.00,-0.0966
3406.00,-0.0965
3405.00,-0.0965
3404.00,-0.0964
3403.00,-0.0964
3402.00,-0.0963
3401.00,-0.0963
3400.00,-0.0962
3399.00,-0.0962
3398.00,-0.0961
3397.00,-0.0961
3396.00,-0.0961
3395.00,-0.0960
3394.00,-0.0960
3393.00,-0.0959
3392.00,-0.0959
3391.00,-0.0959
3390.00,-0.0959
3389.00,-0.0958
3388.00,-0.0958
3387.00,-0.0958
3386.00,-0.0958
3385.00,-0.0958
3384.00,-0.0957
3383.00,-0.0957
3382.00,-0.0957
3381.00,-0.0957
3380.00,-0.0957
3379.00,-0.0957
3378.00,-0.0957
3377.00,-0.0957
3376.00,-0.0957
3375.00,-0.0957
3374.00,-0.0957
3373.00,-0.0956
3372.00,-0.0956
3371.00,-0.0956
3370.00,-0.0956
3369.00,-0.0956
3368.00,-0.0956
3367.00,-0.0956
3366.00,-0.0956
3365.00,-0.0956
3364.00,-0.0956
3363.00,-0.0956
3362.00,-0.0956
3361.00,-0.0956
3360.00,-0.0956
3359.00,-0.0956
3358.00,-0.0956
3357.00,-0.0956
3356.00,-0.0956
3355.00,-0.0956
3354.00,-0.0955
3353.00,-0.0955
3352.00,-0.0955
3351.00,-0.0955
3350.00,-0.0955
3349.00,-0.0955
3348.00,-0.0955
3347.00,-0.0955
3346.00,-0.0955
3345.00,-0.0955
3344.00,-0.0955
3343.00,-0.0955
3342.00,-0.0955
3341.00,-0.0955
3340.00,-0.0955
3339.00,-0.0955
3338.00,-0.0955
3337.00,-0.0955
3336.00,-0.0955
3335.00,-0.0956
3334.00,-0.0956
3333.00,-0.0956
3332.00,-0.0956
3331.00,-0.0956
3330.00,-0.0956
3329.00,-0.0957
3328.00,-0.0957
3327.00,-0.0957
3326.00,-0.0957
3325.00,-0.0958
3324.00,-0.0958
3323.00,-0.0958
3322.00,-0.0958
3321.00,-0.0959
3320.00,-0.0959
3319.00,-0.0959
3318.00,-0.0960
3317.00,-0.0960
3316.00,-0.0960
3315.00,-0.0961
3314.00,-0.0961
3313.00,-0.0962
3312.00,-0.0962
3311.00,-0.0962
3310.00,-0.0963
3309.00,-0.0963
3308.00,-0.0964
3307.00,-0.0965
3306.00,-0.0965
3305.00,-0.0966
3304.00,-0.0966
3303.00,-0.0966
3302.00,-0.0967
3301.00,-0.0966
3300.00,-0.0966
3299.00,-0.0966
3298.00,-0.0965
3297.00,-0.0964
3296.00,-0.0964
3295.00,-0.0963
3294.00,-0.0962
3293.00,-0.0961
3292.00,-0.0961
3291.00,-0.0960
3290.00,-0.0960
3289.00,-0.0959
3288.00,-0.0958
3287.00,-0.0958
3286.00,-0.0957
3285.00,-0.0957
3284.00,-0.0956
3283.00,-0.0956
3282.00,-0.0955
3281.00,-0.0955
3280.00,-0.0955
3279.00,-0.0954
3278.00,-0.0954
3277.00,-0.0954
3276.00,-0.0953
3275.00,-0.0953
3274.00,-0.0953
3273.00,-0.0953
3272.00,-0.0953
3271.00,-0.0952
3270.00,-0.0952
3269.00,-0.0952
3268.00,-0.0952
3267.00,-0.0952
3266.00,-0.0952
3265.00,-0.0952
3264.00,-0.0952
3263.00,-0.0952
3262.00,-0.0952
3261.00,-0.0952
3260.00,-0.0953
3259.00,-0.0953
3258.00,-0.0953
3257.00,-0.0953
3256.00,-0.0953
3255.00,-0.0953
3254.00,-0.0953
3253.00,-0.0953
3252.00,-0.0953
3251.00,-0.0953
3250.00,-0.0953
3249.00,-0.0953
3248.00,-0.0953
3247.00,-0.0953
3246.00,-0.0953
3245.00,-0.0953
3244.00,-0.0953
3243.00,-0.0953
3242.00,-0.0953
3241.00,-0.0953
3240.00,-0.0953
3239.00,-0.0953
3238.00,-0.0953
3237.00,-0.0953
3236.00,-0.0953
3235.00,-0.0953
3234.00,-0.0953
3233.00,-0.0953
3232.00,-0.0953
3231.00,-0.0953
3230.00,-0.0953
3229.00,-0.0953
3228.00,-0.0954
3227.00,-0.0954
3226.00,-0.0954
3225.00,-0.0954
3224.00,-0.0954
3223.00,-0.0954
3222.00,-0.0955
3221.00,-0.0955
3220.00,-0.0955
3219.00,-0.0955
3218.00,-0.0956
3217.00,-0.0956
3216.00,-0.0956
3215.00,-0.0957
3214.00,-0.0957
3213.00,-0.0957
3212.00,-0.0957
3211.00,-0.0958
3210.00,-0.0958
3209.00,-0.0958
3208.00,-0.0958
3207.00,-0.0959
3206.00,-0.0959
3205.00,-0.0959
3204.00,-0.0959
3203.00,-0.0960
3202.00,-0.0960
3201.00,-0.0960
3200.00,-0.0960
3199.00,-0.0960
3198.00,-0.0960
3197.00,-0.0960
3196.00,-0.0960
3195.00,-0.0960
3194.00,-0.0960
3193.00,-0.0959
3192.00,-0.0959
3191.00,-0.0959
3190.00,-0.0959
3189.00,-0.0959
3188.00,-0.0959
3187.00,-0.0959
3186.00,-0.0959
3185.00,-0.0959
3184.00,-0.0959
3183.00,-0.0959
3182.00,-0.0959
3181.00,-0.0959
3180.00,-0.0959
3179.00,-0.0959
3178.00,-0.0959
3177.00,-0.0958
3176.00,-0.0958
3175.00,-0.0958
3174.00,-0.0958
3173.00,-0.0958
3172.00,-0.0958
3171.00,-0.0958
3170.00,-0.0958
3169.00,-0.0958
3168.00,-0.0958
3167.00,-0.0958
3166.00,-0.0958
3165.00,-0.0958
3164.00,-0.0959
3163.00,-0.0959
3162.00,-0.0959
3161.00,-0.0959
3160.00,-0.0959
3159.00,-0.0960
3158.00,-0.0960
3157.00,-0.0960
3156.00,-0.0960
3155.00,-0.0960
3154.00,-0.0960
3153.00,-0.0960
3152.00,-0.0960
3151.00,-0.0960
3150.00,-0.0960
3149.00,-0.0960
3148.00,-0.0960
3147.00,-0.0960
3146.00,-0.0960
3145.00,-0.0960
3144.00,-0.0960
3143.00,-0.0960
3142.00,-0.0960
3141.00,-0.0960
3140.00,-0.0960
3139.00,-0.0960
3138.00,-0.0960
3137.00,-0.0960
3136.00,-0.0960
3135.00,-0.0960
3134.00,-0.0959
3133.00,-0.0959
3132.00,-0.0959
3131.00,-0.0959
3130.00,-0.0959
3129.00,-0.0959
3128.00,-0.0959
3127.00,-0.0960
3126.00,-0.0960
3125.00,-0.0960
3124.00,-0.0960
3123.00,-0.0960
3122.00,-0.0960
3121.00,-0.0960
3120.00,-0.0960
3119.00,-0.0960
3118.00,-0.0961
3117.00,-0.0961
3116.00,-0.0961
3115.00,-0.0962
3114.00,-0.0962
3113.00,-0.0963
3112.00,-0.0963
3111.00,-0.0963
3110.00,-0.0964
3109.00,-0.0964
3108.00,-0.0964
3107.00,-0.0965
3106.00,-0.0965
3105.00,-0.0966
3104.00,-0.0966
3103.00,-0.0966
3102.00,-0.0966
3101.00,-0.0966
3100.00,-0.0966
3099.00,-0.0967
3098.00,-0.0967
3097.00,-0.0967
3096.00,-0.0967
3095.00,-0.0967
3094.00,-0.0967
3093.00,-0.0967
3092.00,-0.0967
3091.00,-0.0967
3090.00,-0.0967
3089.00,-0.0967
3088.00,-0.0967
3087.00,-0.0967
3086.00,-0.0967
3085.00,-0.0967
3084.00,-0.0967
3083.00,-0.0968
3082.00,-0.0968
3081.00,-0.0968
3080.00,-0.0968
3079.00,-0.0968
3078.00,-0.0968
3077.00,-0.0968
3076.00,-0.0968
3075.00,-0.0968
3074.00,-0.0968
3073.00,-0.0968
3072.00,-0.0968
3071.00,-0.0968
3070.00,-0.0968
3069.00,-0.0969
3068.00,-0.0969
3067.00,-0.0969
3066.00,-0.0969
3065.00,-0.0969
3064.00,-0.0969
3063.00,-0.0969
3062.00,-0.0969
3061.00,-0.0969
3060.00,-0.0969
3059.00,-0.0969
3058.00,-0.0969
3057.00,-0.0969
3056.00,-0.0969
3055.00,-0.0969
3054.00,-0.0970
3053.00,-0.0970
3052.00,-0.0970
3051.00,-0.0970
3050.00,-0.0970
3049.00,-0.0970
3048.00,-0.0970
3047.00,-0.0970
3046.00,-0.0970
3045.00,-0.0970
3044.00,-0.0970
3043.00,-0.0970
3042.00,-0.0970
3041.00,-0.0970
3040.00,-0.0970
3039.00,-0.0970
3038.00,-0.0970
3037.00,-0.0970
3036.00,-0.0970
3035.00,-0.0970
3034.00,-0.0970
3033.00,-0.0970
3032.00,-0.0970
3031.00,-0.0970
3030.00,-0.0970
3029.00,-0.0969
3028.00,-0.0969
3027.00,-0.0969
3026.00,-0.0969
3025.00,-0.0969
3024.00,-0.0969
3023.00,-0.0969
3022.00,-0.0969
3021.00,-0.0969
3020.00,-0.0969
3019.00,-0.0969
3018.00,-0.0969
3017.00,-0.0968
3016.00,-0.0968
3015.00,-0.0968
3014.00,-0.0968
3013.00,-0.0968
3012.00,-0.0968
3011.00,-0.0969
3010.00,-0.0969
3009.00,-0.0969
3008.00,-0.0969
3007.00,-0.0969
3006.00,-0.0969
3005.00,-0.0969
3004.00,-0.0969
3003.00,-0.0969
3002.00,-0.0969
3001.00,-0.0969
3000.00,-0.0969
2999.00,-0.0969
2998.00,-0.0969
2997.00,-0.0969
2996.00,-0.0969
2995.00,-0.0969
2994.00,-0.0969
2993.00,-0.0969
2992.00,-0.0969
2991.00,-0.0969
2990.00,-0.0969
2989.00,-0.0969
2988.00,-0.0969
2987.00,-0.0969
2986.00,-0.0969
2985.00,-0.0969
2984.00,-0.0969
2983.00,-0.0969
2982.00,-0.0969
2981.00,-0.0969
2980.00,-0.0969
2979.00,-0.0969
2978.00,-0.0969
2977.00,-0.0969
2976.00,-0.0968
2975.00,-0.0968
2974.00,-0.0968
2973.00,-0.0968
2972.00,-0.0968
2971.00,-0.0968
2970.00,-0.0968
2969.00,-0.0968
2968.00,-0.0968
2967.00,-0.0968
2966.00,-0.0968
2965.00,-0.0968
2964.00,-0.0968
2963.00,-0.0968
2962.00,-0.0968
2961.00,-0.0968
2960.00,-0.0968
2959.00,-0.0968
2958.00,-0.0968
2957.00,-0.0968
2956.00,-0.0968
2955.00,-0.0968
2954.00,-0.0968
2953.00,-0.0968
2952.00,-0.0969
2951.00,-0.0969
2950.00,-0.0969
2949.00,-0.0969
2948.00,-0.0969
2947.00,-0.0969
2946.00,-0.0969
2945.00,-0.0969
2944.00,-0.0969
2943.00,-0.0970
2942.00,-0.0970
2941.00,-0.0970
2940.00,-0.0970
2939.00,-0.0970
2938.00,-0.0970
2937.00,-0.0970
2936.00,-0.0970
2935.00,-0.0970
2934.00,-0.0970
2933.00,-0.0970
2932.00,-0.0970
2931.00,-0.0970
2930.00,-0.0970
2929.00,-0.0970
2928.00,-0.0970
2927.00,-0.0970
2926.00,-0.0970
2925.00,-0.0970
2924.00,-0.0970
2923.00,-0.0970
2922.00,-0.0970
2921.00,-0.0969
2920.00,-0.0969
2919.00,-0.0969
2918.00,-0.0969
2917.00,-0.0969
2916.00,-0.0968
2915.00,-0.0968
2914.00,-0.0968
2913.00,-0.0968
2912.00,-0.0967
2911.00,-0.0967
2910.00,-0.0967
2909.00,-0.0967
2908.00,-0.0967
2907.00,-0.0967
2906.00,-0.0967
2905.00,-0.0967
2904.00,-0.0967
2903.00,-0.0967
2902.00,-0.0967
2901.00,-0.0967
2900.00,-0.0967
2899.00,-0.0967
2898.00,-0.0967
2897.00,-0.0968
2896.00,-0.0968
2895.00,-0.0968
2894.00,-0.0968
2893.00,-0.0968
2892.00,-0.0968
2891.00,-0.0968
2890.00,-0.0969
2889.00,-0.0969
2888.00,-0.0969
2887.00,-0.0969
2886.00,-0.0969
2885.00,-0.0969
2884.00,-0.0969
2883.00,-0.0969
2882.00,-0.0969
2881.00,-0.0969
2880.00,-0.0969
2879.00,-0.0969
2878.00,-0.0968
2877.00,-0.0968
2876.00,-0.0968
2875.00,-0.0968
2874.00,-0.0968
2873.00,-0.0968
2872.00,-0.0968
2871.00,-0.0968
2870.00,-0.0968
2869.00,-0.0967
2868.00,-0.0967
2867.00,-0.0967
2866.00,-0.0967
2865.00,-0.0967
2864.00,-0.0967
2863.00,-0.0967
2862.00,-0.0967
2861.00,-0.0967
2860.00,-0.0967
2859.00,-0.0967
2858.00,-0.0967
2857.00,-0.0967
2856.00,-0.0967
2855.00,-0.0968
2854.00,-0.0968
2853.00,-0.0968
2852.00,-0.0968
2851.00,-0.0968
2850.00,-0.0968
2849.00,-0.0968
2848.00,-0.0968
2847.00,-0.0968
2846.00,-0.0968
2845.00,-0.0968
2844.00,-0.0968
2843.00,-0.0968
2842.00,-0.0968
2841.00,-0.0968
2840.00,-0.0968
2839.00,-0.0968
2838.00,-0.0968
2837.00,-0.0968
2836.00,-0.0968
2835.00,-0.0969
2834.00,-0.0969
2833.00,-0.0969
2832.00,-0.0969
2831.00,-0.0969
2830.00,-0.0968
2829.00,-0.0968
2828.00,-0.0968
2827.00,-0.0968
2826.00,-0.0968
2825.00,-0.0968
2824.00,-0.0967
2823.00,-0.0967
2822.00,-0.0967
2821.00,-0.0967
2820.00,-0.0967
2819.00,-0.0966
2818.00,-0.0966
2817.00,-0.0966
2816.00,-0.0966
2815.00,-0.0966
2814.00,-0.0965
2813.00,-0.0965
2812.00,-0.0965
2811.00,-0.0965
2810.00,-0.0965
2809.00,-0.0965
2808.00,-0.0965
2807.00,-0.0965
2806.00,-0.0965
2805.00,-0.0965
2804.00,-0.0965
2803.00,-0.0965
2802.00,-0.0965
2801.00,-0.0965
2800.00,-0.0965
2799.00,-0.0965
2798.00,-0.0965
2797.00,-0.0966
2796.00,-0.0966
2795.00,-0.0966
2794.00,-0.0966
2793.00,-0.0966
2792.00,-0.0966
2791.00,-0.0966
2790.00,-0.0966
2789.00,-0.0966
2788.00,-0.0966
2787.00,-0.0966
2786.00,-0.0966
2785.00,-0.0966
2784.00,-0.0966
2783.00,-0.0966
2782.00,-0.0966
2781.00,-0.0966
2780.00,-0.0966
2779.00,-0.0966
2778.00,-0.0966
2777.00,-0.0966
2776.00,-0.0966
2775.00,-0.0966
2774.00,-0.0965
2773.00,-0.0965
2772.00,-0.0965
2771.00,-0.0965
2770.00,-0.0965
2769.00,-0.0965
2768.00,-0.0965
2767.00,-0.0964
2766.00,-0.0964
2765.00,-0.0964
2764.00,-0.0964
2763.00,-0.0964
2762.00,-0.0964
2761.00,-0.0964
2760.00,-0.0963
2759.00,-0.0963
2758.00,-0.0963
2757.00,-0.0963
