Created as New Dataset,Sample 023 By Analyst Date Friday, March 28 2025
cm-1,A
4000.00,0.0124
3999.00,0.0124
3998.00,0.0124
3997.00,0.0124
3996.00,0.0124
3995.00,0.0124
3994.00,0.0124
3993.00,0.0124
3992.00,0.0124
3991.00,0.0124
3990.00,0.0124
3989.00,0.0124
3988.00,0.0124
3987.00,0.0124
3986.00,0.0124
3985.00,0.0124
3984.00,0.0124
3983.00,0.0124
3982.00,0.0124
3981.00,0.0124
3980.00,0.0124
3979.00,0.0125
3978.00,0.0125
3977.00,0.0125
3976.00,0.0125
3975.00,0.0125
3974.00,0.0125
3973.00,0.0125
3972.00,0.0125
3971.00,0.0125
3970.00,0.0125
3969.00,0.0125
3968.00,0.0125
3967.00,0.0125
3966.00,0.0125
3965.00,0.0125
3964.00,0.0125
3963.00,0.0125
3962.00,0.0125
3961.00,0.0125
3960.00,0.0125
3959.00,0.0125
3958.00,0.0125
3957.00,0.0125
3956.00,0.0125
3955.00,0.0125
3954.00,0.0125
3953.00,0.0126
3952.00,0.0126
3951.00,0.0126
3950.00,0.0126
3949.00,0.0126
3948.00,0.0126
3947.00,0.0126
3946.00,0.0126
3945.00,0.0126
3944.00,0.0126
3943.00,0.0126
3942.00,0.0126
3941.00,0.0126
3940.00,0.0126
3939.00,0.0126
3938.00,0.0126
3937.00,0.0126
3936.00,0.0127
3935.00,0.0127
3934.00,0.0127
3933.00,0.0127
3932.00,0.0127
3931.00,0.0127
3930.00,0.0127
3929.00,0.0127
3928.00,0.0127
3927.00,0.0127
3926.00,0.0127
3925.00,0.0127
3924.00,0.0127
3923.00,0.0127
3922.00,0.0128
3921.00,0.0128
3920.00,0.0128
3919.00,0.0128
3918.00,0.0128
3917.00,0.0127
3916.00,0.0127
3915.00,0.0127
3914.00,0.0126
3913.00,0.0126
3912.00,0.0127
3911.00,0.0127
3910.00,0.0127
3909.00,0.0128
3908.00,0.0128
3907.00,0.0129
3906.00,0.0129
3905.00,0.0130
3904.00,0.0131
3903.00,0.0131
3902.00,0.0131
3901.00,0.0130
3900.00,0.0129
3899.00,0.0128
3898.00,0.0128
3897.00,0.0128
3896.00,0.0128
3895.00,0.0128
3894.00,0.0128
3893.00,0.0128
3892.00,0.0128
3891.00,0.0128
3890.00,0.0129
3889.00,0.0129
3888.00,0.0129
3887.00,0.0129
3886.00,0.0129
3885.00,0.0130
3884.00,0.0130
3883.00,0.0129
3882.00,0.0128
3881.00,0.0128
3880.00,0.0129
3879.00,0.0130
3878.00,0.0130
3877.00,0.0129
3876.00,0.0129
3875.00,0.0129
3874.00,0.0130
3873.00,0.0131
3872.00,0.0130
3871.00,0.0130
3870.00,0.0130
3869.00,0.0131
3868.00,0.0131
3867.00,0.0130
3866.00,0.0129
3865.00,0.0129
3864.00,0.0130
3863.00,0.0130
3862.00,0.0130
3861.00,0.0129
3860.00,0.0130
3859.00,0.0130
3858.00,0.0130
3857.00,0.0130
3856.00,0.0129
3855.00,0.0128
3854.00,0.0128
3853.00,0.0130
3852.00,0.0132
3851.00,0.0131
3850.00,0.0129
3849.00,0.0128
3848.00,0.0129
3847.00,0.0130
3846.00,0.0130
3845.00,0.0130
3844.00,0.0130
3843.00,0.0131
3842.00,0.0131
3841.00,0.0131
3840.00,0.0130
3839.00,0.0130
3838.00,0.0130
3837.00,0.0131
3836.00,0.0130
3835.00,0.0130
3834.00,0.0130
3833.00,0.0130
3832.00,0.0130
3831.00,0.0130
3830.00,0.0131
3829.00,0.0130
3828.00,0.0130
3827.00,0.0130
3826.00,0.0131
3825.00,0.0131
3824.00,0.0131
3823.00,0.0130
3822.00,0.0130
3821.00,0.0131
3820.00,0.0132
3819.00,0.0132
3818.00,0.0130
3817.00,0.0129
3816.00,0.0130
3815.00,0.0131
3814.00,0.0131
3813.00,0.0130
3812.00,0.0129
3811.00,0.0130
3810.00,0.0130
3809.00,0.0130
3808.00,0.0130
3807.00,0.0130
3806.00,0.0131
3805.00,0.0131
3804.00,0.0131
3803.00,0.0130
3802.00,0.0130
3801.00,0.0131
3800.00,0.0132
3799.00,0.0131
3798.00,0.0130
3797.00,0.0130
3796.00,0.0131
3795.00,0.0131
3794.00,0.0131
3793.00,0.0130
3792.00,0.0130
3791.00,0.0130
3790.00,0.0130
3789.00,0.0130
3788.00,0.0130
3787.00,0.0130
3786.00,0.0130
3785.00,0.0130
3784.00,0.0131
3783.00,0.0131
3782.00,0.0131
3781.00,0.0131
3780.00,0.0131
3779.00,0.0131
3778.00,0.0131
3777.00,0.0131
3776.00,0.0130
3775.00,0.0130
3774.00,0.0131
3773.00,0.0131
3772.00,0.0131
3771.00,0.0131
3770.00,0.0131
3769.00,0.0132
3768.00,0.0132
3767.00,0.0131
3766.00,0.0131
3765.00,0.0132
3764.00,0.0132
3763.00,0.0132
3762.00,0.0132
3761.00,0.0132
3760.00,0.0132
3759.00,0.0133
3758.00,0.0133
3757.00,0.0133
3756.00,0.0133
3755.00,0.0134
3754.00,0.0134
3753.00,0.0134
3752.00,0.0134
3751.00,0.0134
3750.00,0.0134
3749.00,0.0134
3748.00,0.0134
3747.00,0.0134
3746.00,0.0133
3745.00,0.0133
3744.00,0.0134
3743.00,0.0135
3742.00,0.0134
3741.00,0.0133
3740.00,0.0134
3739.00,0.0137
3738.00,0.0138
3737.00,0.0137
3736.00,0.0136
3735.00,0.0135
3734.00,0.0134
3733.00,0.0133
3732.00,0.0133
3731.00,0.0134
3730.00,0.0134
3729.00,0.0134
3728.00,0.0134
3727.00,0.0134
3726.00,0.0135
3725.00,0.0134
3724.00,0.0134
3723.00,0.0133
3722.00,0.0133
3721.00,0.0134
3720.00,0.0134
3719.00,0.0133
3718.00,0.0133
3717.00,0.0134
3716.00,0.0134
3715.00,0.0134
3714.00,0.0133
3713.00,0.0133
3712.00,0.0133
3711.00,0.0133
3710.00,0.0133
3709.00,0.0133
3708.00,0.0132
3707.00,0.0132
3706.00,0.0132
3705.00,0.0132
3704.00,0.0132
3703.00,0.0132
3702.00,0.0132
3701.00,0.0132
3700.00,0.0132
3699.00,0.0132
3698.00,0.0132
3697.00,0.0132
3696.00,0.0132
3695.00,0.0132
3694.00,0.0132
3693.00,0.0132
3692.00,0.0132
3691.00,0.0132
3690.00,0.0132
3689.00,0.0132
3688.00,0.0132
3687.00,0.0132
3686.00,0.0132
3685.00,0.0131
3684.00,0.0131
3683.00,0.0132
3682.00,0.0132
3681.00,0.0132
3680.00,0.0133
3679.00,0.0133
3678.00,0.0133
3677.00,0.0133
3676.00,0.0132
3675.00,0.0133
3674.00,0.0134
3673.00,0.0133
3672.00,0.0132
3671.00,0.0132
3670.00,0.0132
3669.00,0.0133
3668.00,0.0132
3667.00,0.0131
3666.00,0.0130
3665.00,0.0130
3664.00,0.0131
3663.00,0.0131
3662.00,0.0130
3661.00,0.0130
3660.00,0.0131
3659.00,0.0131
3658.00,0.0131
3657.00,0.0131
3656.00,0.0131
3655.00,0.0132
3654.00,0.0132
3653.00,0.0133
3652.00,0.0134
3651.00,0.0135
3650.00,0.0135
3649.00,0.0135
3648.00,0.0134
3647.00,0.0133
3646.00,0.0133
3645.00,0.0132
3644.00,0.0132
3643.00,0.0131
3642.00,0.0131
3641.00,0.0131
3640.00,0.0130
3639.00,0.0130
3638.00,0.0130
3637.00,0.0131
3636.00,0.0131
3635.00,0.0131
3634.00,0.0132
3633.00,0.0133
3632.00,0.0133
3631.00,0.0133
3630.00,0.0132
3629.00,0.0132
3628.00,0.0133
3627.00,0.0132
3626.00,0.0131
3625.00,0.0131
3624.00,0.0131
3623.00,0.0132
3622.00,0.0132
3621.00,0.0132
3620.00,0.0131
3619.00,0.0132
3618.00,0.0133
3617.00,0.0133
3616.00,0.0133
3615.00,0.0133
3614.00,0.0133
3613.00,0.0133
3612.00,0.0133
3611.00,0.0133
3610.00,0.0132
3609.00,0.0132
3608.00,0.0131
3607.00,0.0131
3606.00,0.0130
3605.00,0.0130
3604.00,0.0130
3603.00,0.0130
3602.00,0.0130
3601.00,0.0130
3600.00,0.0130
3599.00,0.0130
3598.00,0.0131
3597.00,0.0131
3596.00,0.0131
3595.00,0.0131
3594.00,0.0131
3593.00,0.0131
3592.00,0.0131
3591.00,0.0132
3590.00,0.0132
3589.00,0.0132
3588.00,0.0132
3587.00,0.0131
3586.00,0.0130
3585.00,0.0130
3584.00,0.0129
3583.00,0.0129
3582.00,0.0129
3581.00,0.0129
3580.00,0.0129
3579.00,0.0129
3578.00,0.0128
3577.00,0.0128
3576.00,0.0128
3575.00,0.0129
3574.00,0.0129
3573.00,0.0129
3572.00,0.0130
3571.00,0.0131
3570.00,0.0131
3569.00,0.0132
3568.00,0.0132
3567.00,0.0131
3566.00,0.0130
3565.00,0.0130
3564.00,0.0129
3563.00,0.0129
3562.00,0.0129
3561.00,0.0129
3560.00,0.0128
3559.00,0.0128
3558.00,0.0128
3557.00,0.0128
3556.00,0.0128
3555.00,0.0128
3554.00,0.0128
3553.00,0.0128
3552.00,0.0128
3551.00,0.0128
3550.00,0.0128
3549.00,0.0129
3548.00,0.0129
3547.00,0.0129
3546.00,0.0129
3545.00,0.0128
3544.00,0.0128
3543.00,0.0127
3542.00,0.0127
3541.00,0.0127
3540.00,0.0127
3539.00,0.0127
3538.00,0.0127
3537.00,0.0127
3536.00,0.0127
3535.00,0.0127
3534.00,0.0127
3533.00,0.0127
3532.00,0.0127
3531.00,0.0127
3530.00,0.0127
3529.00,0.0127
3528.00,0.0127
3527.00,0.0127
3526.00,0.0127
3525.00,0.0127
3524.00,0.0127
3523.00,0.0127
3522.00,0.0126
3521.00,0.0126
3520.00,0.0126
3519.00,0.0126
3518.00,0.0126
3517.00,0.0126
3516.00,0.0126
3515.00,0.0126
3514.00,0.0126
3513.00,0.0126
3512.00,0.0126
3511.00,0.0126
3510.00,0.0126
3509.00,0.0126
3508.00,0.0126
3507.00,0.0126
3506.00,0.0126
3505.00,0.0126
3504.00,0.0126
3503.00,0.0126
3502.00,0.0126
3501.00,0.0125
3500.00,0.0125
3499.00,0.0125
3498.00,0.0125
3497.00,0.0125
3496.00,0.0125
3495.00,0.0125
3494.00,0.0125
3493.00,0.0124
3492.00,0.0125
3491.00,0.0125
3490.00,0.0125
3489.00,0.0125
3488.00,0.0124
3487.00,0.0124
3486.00,0.0124
3485.00,0.0124
3484.00,0.0124
3483.00,0.0125
3482.00,0.0124
3481.00,0.0124
3480.00,0.0124
3479.00,0.0124
3478.00,0.0124
3477.00,0.0124
3476.00,0.0124
3475.00,0.0124
3474.00,0.0124
3473.00,0.0124
3472.00,0.0124
3471.00,0.0124
3470.00,0.0124
3469.00,0.0124
3468.00,0.0124
3467.00,0.0124
3466.00,0.0124
3465.00,0.0124
3464.00,0.0124
3463.00,0.0124
3462.00,0.0124
3461.00,0.0124
3460.00,0.0124
3459.00,0.0124
3458.00,0.0124
3457.00,0.0123
3456.00,0.0123
3455.00,0.0123
3454.00,0.0124
3453.00,0.0124
3452.00,0.0124
3451.00,0.0124
3450.00,0.0124
3449.00,0.0124
3448.00,0.0124
3447.00,0.0124
3446.00,0.0124
3445.00,0.0124
3444.00,0.0124
3443.00,0.0124
3442.00,0.0124
3441.00,0.0124
3440.00,0.0124
3439.00,0.0124
3438.00,0.0124
3437.00,0.0124
3436.00,0.0124
3435.00,0.0124
3434.00,0.0124
3433.00,0.0124
3432.00,0.0124
3431.00,0.0124
3430.00,0.0124
3429.00,0.0124
3428.00,0.0124
3427.00,0.0124
3426.00,0.0124
3425.00,0.0124
3424.00,0.0124
3423.00,0.0124
3422.00,0.0124
3421.00,0.0124
3420.00,0.0124
3419.00,0.0124
3418.00,0.0124
3417.00,0.0124
3416.00,0.0124
3415.00,0.0124
3414.00,0.0124
3413.00,0.0124
3412.00,0.0124
3411.00,0.0124
3410.00,0.0124
3409.00,0.0124
3408.00,0.0124
3407.00,0.0124
3406.00,0.0124
3405.00,0.0124
3404.00,0.0124
3403.00,0.0124
3402.00,0.0124
3401.00,0.0124
3400.00,0.0124
3399.00,0.0124
3398.00,0.0124
3397.00,0.0124
3396.00,0.0124
3395.00,0.0124
3394.00,0.0124
3393.00,0.0124
3392.00,0.0124
3391.00,0.0124
3390.00,0.0124
3389.00,0.0124
3388.00,0.0124
3387.00,0.0124
3386.00,0.0124
3385.00,0.0124
3384.00,0.0124
3383.00,0.0124
3382.00,0.0124
3381.00,0.0124
3380.00,0.0124
3379.00,0.0124
3378.00,0.0124
3377.00,0.0124
3376.00,0.0124
3375.00,0.0125
3374.00,0.0125
3373.00,0.0125
3372.00,0.0125
3371.00,0.0125
3370.00,0.0125
3369.00,0.0125
3368.00,0.0125
3367.00,0.0125
3366.00,0.0125
3365.00,0.0125
3364.00,0.0125
3363.00,0.0125
3362.00,0.0125
3361.00,0.0125
3360.00,0.0125
3359.00,0.0125
3358.00,0.0125
3357.00,0.0125
3356.00,0.0126
3355.00,0.0126
3354.00,0.0126
3353.00,0.0126
3352.00,0.0126
3351.00,0.0126
3350.00,0.0126
3349.00,0.0126
3348.00,0.0126
3347.00,0.0126
3346.00,0.0126
3345.00,0.0126
3344.00,0.0126
3343.00,0.0126
3342.00,0.0126
3341.00,0.0126
3340.00,0.0126
3339.00,0.0126
3338.00,0.0126
3337.00,0.0126
3336.00,0.0126
3335.00,0.0126
3334.00,0.0126
3333.00,0.0127
3332.00,0.0127
3331.00,0.0127
3330.00,0.0127
3329.00,0.0127
3328.00,0.0127
3327.00,0.0127
3326.00,0.0127
3325.00,0.0127
3324.00,0.0127
3323.00,0.0127
3322.00,0.0127
3321.00,0.0127
3320.00,0.0127
3319.00,0.0127
3318.00,0.0127
3317.00,0.0127
3316.00,0.0127
3315.00,0.0127
3314.00,0.0127
3313.00,0.0128
3312.00,0.0128
3311.00,0.0128
3310.00,0.0128
3309.00,0.0128
3308.00,0.0128
3307.00,0.0128
3306.00,0.0128
3305.00,0.0128
3304.00,0.0128
3303.00,0.0128
3302.00,0.0128
3301.00,0.0128
3300.00,0.0128
3299.00,0.0128
3298.00,0.0128
3297.00,0.0128
3296.00,0.0128
3295.00,0.0128
3294.00,0.0128
3293.00,0.0128
3292.00,0.0128
3291.00,0.0128
3290.00,0.0128
3289.00,0.0128
3288.00,0.0128
3287.00,0.0128
3286.00,0.0128
3285.00,0.0129
3284.00,0.0129
3283.00,0.0129
3282.00,0.0129
3281.00,0.0129
3280.00,0.0129
3279.00,0.0129
3278.00,0.0129
3277.00,0.0129
3276.00,0.0129
3275.00,0.0129
3274.00,0.0129
3273.00,0.0129
3272.00,0.0129
3271.00,0.0129
3270.00,0.0129
3269.00,0.0129
3268.00,0.0129
3267.00,0.0129
3266.00,0.0129
3265.00,0.0129
3264.00,0.0129
3263.00,0.0129
3262.00,0.0129
3261.00,0.0129
3260.00,0.0129
3259.00,0.0129
3258.00,0.0130
3257.00,0.0130
3256.00,0.0130
3255.00,0.0130
3254.00,0.0130
3253.00,0.0130
3252.00,0.0130
3251.00,0.0130
3250.00,0.0130
3249.00,0.0130
3248.00,0.0130
3247.00,0.0130
3246.00,0.0130
3245.00,0.0130
3244.00,0.0130
3243.00,0.0130
3242.00,0.0130
3241.00,0.0130
3240.00,0.0130
3239.00,0.0130
3238.00,0.0130
3237.00,0.0130
3236.00,0.0130
3235.00,0.0130
3234.00,0.0130
3233.00,0.0130
3232.00,0.0131
3231.00,0.0131
3230.00,0.0131
3229.00,0.0131
3228.00,0.0131
3227.00,0.0131
3226.00,0.0131
3225.00,0.0131
3224.00,0.0131
3223.00,0.0131
3222.00,0.0131
3221.00,0.0131
3220.00,0.0131
3219.00,0.0131
3218.00,0.0131
3217.00,0.0131
3216.00,0.0131
3215.00,0.0131
3214.00,0.0131
3213.00,0.0131
3212.00,0.0131
3211.00,0.0131
3210.00,0.0131
3209.00,0.0131
3208.00,0.0131
3207.00,0.0131
3206.00,0.0131
3205.00,0.0131
3204.00,0.0132
3203.00,0.0132
3202.00,0.0132
3201.00,0.0132
3200.00,0.0132
3199.00,0.0132
3198.00,0.0132
3197.00,0.0132
3196.00,0.0132
3195.00,0.0132
3194.00,0.0132
3193.00,0.0132
3192.00,0.0132
3191.00,0.0132
3190.00,0.0132
3189.00,0.0132
3188.00,0.0133
3187.00,0.0133
3186.00,0.0133
3185.00,0.0133
3184.00,0.0133
3183.00,0.0133
3182.00,0.0133
3181.00,0.0133
3180.00,0.0133
3179.00,0.0133
3178.00,0.0133
3177.00,0.0133
3176.00,0.0133
3175.00,0.0133
3174.00,0.0133
3173.00,0.0133
3172.00,0.0133
3171.00,0.0133
3170.00,0.0133
3169.00,0.0133
3168.00,0.0133
3167.00,0.0134
3166.00,0.0134
3165.00,0.0134
3164.00,0.0134
3163.00,0.0134
3162.00,0.0134
3161.00,0.0134
3160.00,0.0134
3159.00,0.0134
3158.00,0.0134
3157.00,0.0134
3156.00,0.0134
3155.00,0.0134
3154.00,0.0134
3153.00,0.0134
3152.00,0.0134
3151.00,0.0134
3150.00,0.0134
3149.00,0.0134
3148.00,0.0134
3147.00,0.0134
3146.00,0.0134
3145.00,0.0134
3144.00,0.0134
3143.00,0.0135
3142.00,0.0135
3141.00,0.0135
3140.00,0.0135
3139.00,0.0135
3138.00,0.0135
3137.00,0.0135
3136.00,0.0135
3135.00,0.0135
3134.00,0.0135
3133.00,0.0135
3132.00,0.0135
3131.00,0.0135
3130.00,0.0135
3129.00,0.0135
3128.00,0.0135
3127.00,0.0135
3126.00,0.0135
3125.00,0.0135
3124.00,0.0135
3123.00,0.0135
3122.00,0.0136
3121.00,0.0136
3120.00,0.0136
3119.00,0.0136
3118.00,0.0136
3117.00,0.0136
3116.00,0.0136
3115.00,0.0136
3114.00,0.0136
3113.00,0.0136
3112.00,0.0136
3111.00,0.0136
3110.00,0.0136
3109.00,0.0136
3108.00,0.0136
3107.00,0.0136
3106.00,0.0136
3105.00,0.0136
3104.00,0.0136
3103.00,0.0136
3102.00,0.0136
3101.00,0.0136
3100.00,0.0136
3099.00,0.0136
3098.00,0.0136
3097.00,0.0136
3096.00,0.0136
3095.00,0.0136
3094.00,0.0136
3093.00,0.0136
3092.00,0.0136
3091.00,0.0136
3090.00,0.0136
3089.00,0.0136
3088.00,0.0136
3087.00,0.0136
3086.00,0.0137
3085.00,0.0137
3084.00,0.0137
3083.00,0.0137
3082.00,0.0137
3081.00,0.0137
3080.00,0.0137
3079.00,0.0137
3078.00,0.0137
3077.00,0.0137
3076.00,0.0137
3075.00,0.0137
3074.00,0.0137
3073.00,0.0137
3072.00,0.0137
3071.00,0.0137
3070.00,0.0137
3069.00,0.0137
3068.00,0.0137
3067.00,0.0137
3066.00,0.0137
3065.00,0.0137
3064.00,0.0137
3063.00,0.0137
3062.00,0.0137
3061.00,0.0137
3060.00,0.0137
3059.00,0.0137
3058.00,0.0137
3057.00,0.0137
3056.00,0.0137
3055.00,0.0137
3054.00,0.0137
3053.00,0.0137
3052.00,0.0137
3051.00,0.0137
3050.00,0.0137
3049.00,0.0137
3048.00,0.0137
3047.00,0.0137
3046.00,0.0137
3045.00,0.0137
3044.00,0.0137
3043.00,0.0137
3042.00,0.0137
3041.00,0.0137
3040.00,0.0137
3039.00,0.0137
3038.00,0.0137
3037.00,0.0137
3036.00,0.0137
3035.00,0.0137
3034.00,0.0137
3033.00,0.0137
3032.00,0.0137
3031.00,0.0137
3030.00,0.0137
3029.00,0.0137
3028.00,0.0137
3027.00,0.0137
3026.00,0.0137
3025.00,0.0136
3024.00,0.0136
3023.00,0.0136
3022.00,0.0136
3021.00,0.0136
3020.00,0.0136
3019.00,0.0136
3018.00,0.0136
3017.00,0.0136
3016.00,0.0136
3015.00,0.0135
3014.00,0.0135
3013.00,0.0135
3012.00,0.0135
3011.00,0.0135
3010.00,0.0135
3009.00,0.0135
3008.00,0.0135
3007.00,0.0134
3006.00,0.0134
3005.00,0.0134
3004.00,0.0134
3003.00,0.0134
3002.00,0.0134
3001.00,0.0134
3000.00,0.0134
2999.00,0.0133
2998.00,0.0133
2997.00,0.0133
2996.00,0.0133
2995.00,0.0133
2994.00,0.0133
2993.00,0.0133
2992.00,0.0133
2991.00,0.0132
2990.00,0.0132
2989.00,0.0132
2988.00,0.0132
2987.00,0.0132
2986.00,0.0132
2985.00,0.0132
2984.00,0.0132
2983.00,0.0132
2982.00,0.0132
2981.00,0.0133
2980.00,0.0133
2979.00,0.0133
2978.00,0.0133
2977.00,0.0133
2976.00,0.0133
2975.00,0.0133
2974.00,0.0133
2973.00,0.0133
2972.00,0.0133
2971.00,0.0133
2970.00,0.0133
2969.00,0.0133
2968.00,0.0133
2967.00,0.0133
2966.00,0.0134
2965.00,0.0134
2964.00,0.0134
2963.00,0.0134
2962.00,0.0134
2961.00,0.0134
2960.00,0.0134
2959.00,0.0134
2958.00,0.0134
2957.00,0.0134
2956.00,0.0134
2955.00,0.0134
2954.00,0.0134
2953.00,0.0134
2952.00,0.0134
2951.00,0.0134
2950.00,0.0134
2949.00,0.0134
2948.00,0.0134
2947.00,0.0134
2946.00,0.0134
2945.00,0.0134
2944.00,0.0135
2943.00,0.0135
2942.00,0.0135
2941.00,0.0135
2940.00,0.0135
2939.00,0.0135
2938.00,0.0135
2937.00,0.0135
2936.00,0.0135
2935.00,0.0135
2934.00,0.0135
2933.00,0.0135
2932.00,0.0135
2931.00,0.0135
2930.00,0.0135
2929.00,0.0135
2928.00,0.0134
2927.00,0.0134
2926.00,0.0134
2925.00,0.0134
2924.00,0.0134
2923.00,0.0133
2922.00,0.0133
2921.00,0.0133
2920.00,0.0133
2919.00,0.0132
2918.00,0.0132
2917.00,0.0132
2916.00,0.0132
2915.00,0.0132
2914.00,0.0133
2913.00,0.0133
2912.00,0.0133
2911.00,0.0133
2910.00,0.0133
2909.00,0.0133
2908.00,0.0133
2907.00,0.0133
2906.00,0.0133
2905.00,0.0133
2904.00,0.0133
2903.00,0.0133
2902.00,0.0133
2901.00,0.0133
2900.00,0.0133
2899.00,0.0133
2898.00,0.0134
2897.00,0.0134
2896.00,0.0134
2895.00,0.0134
2894.00,0.0134
2893.00,0.0134
2892.00,0.0134
2891.00,0.0134
2890.00,0.0134
2889.00,0.0135
2888.00,0.0135
2887.00,0.0135
2886.00,0.0135
2885.00,0.0135
2884.00,0.0135
2883.00,0.0135
2882.00,0.0135
2881.00,0.0136
2880.00,0.0136
2879.00,0.0136
2878.00,0.0136
2877.00,0.0136
2876.00,0.0136
2875.00,0.0137
2874.00,0.0137
2873.00,0.0137
2872.00,0.0137
2871.00,0.0137
2870.00,0.0137
2869.00,0.0137
2868.00,0.0137
2867.00,0.0137
2866.00,0.0137
2865.00,0.0137
2864.00,0.0137
2863.00,0.0137
2862.00,0.0138
2861.00,0.0138
2860.00,0.0138
2859.00,0.0138
2858.00,0.0138
2857.00,0.0138
2856.00,0.0138
2855.00,0.0137
2854.00,0.0137
2853.00,0.0137
2852.00,0.0137
2851.00,0.0137
2850.00,0.0137
2849.00,0.0137
2848.00,0.0137
2847.00,0.0137
2846.00,0.0137
2845.00,0.0137
2844.00,0.0138
2843.00,0.0138
2842.00,0.0138
2841.00,0.0138
2840.00,0.0138
2839.00,0.0138
2838.00,0.0139
2837.00,0.0139
2836.00,0.0139
2835.00,0.0139
2834.00,0.0139
2833.00,0.0139
2832.00,0.0139
2831.00,0.0139
2830.00,0.0139
2829.00,0.0139
2828.00,0.0139
2827.00,0.0139
2826.00,0.0139
2825.00,0.0139
2824.00,0.0139
2823.00,0.0140
2822.00,0.0140
2821.00,0.0140
2820.00,0.0140
2819.00,0.0140
2818.00,0.0140
2817.00,0.0140
2816.00,0.0140
2815.00,0.0140
2814.00,0.0140
2813.00,0.0140
2812.00,0.0140
2811.00,0.0140
2810.00,0.0140
2809.00,0.0140
2808.00,0.0140
2807.00,0.0140
2806.00,0.0140
2805.00,0.0140
2804.00,0.0140
2803.00,0.0140
2802.00,0.0140
2801.00,0.0140
2800.00,0.0140
2799.00,0.0140
2798.00,0.0140
2797.00,0.0140
2796.00,0.0140
2795.00,0.0140
2794.00,0.0140
2793.00,0.0140
2792.00,0.0140
2791.00,0.0140
2790.00,0.0140
2789.00,0.0140
2788.00,0.0140
2787.00,0.0140
2786.00,0.0140
2785.00,0.0140
2784.00,0.0140
2783.00,0.0141
2782.00,0.0141
2781.00,0.0141
2780.00,0.0141
2779.00,0.0141
2778.00,0.0140
2777.00,0.0141
2776.00,0.0141
2775.00,0.0141
2774.00,0.0141
2773.00,0.0141
2772.00,0.0140
2771.00,0.0141
2770.00,0.0141
2769.00,0.0141
2768.00,0.0141
2767.00,0.0141
2766.00,0.0141
2765.00,0.0141
2764.00,0.0141
2763.00,0.0141
2762.00,0.0141
2761.00,0.0141
2760.00,0.0141
2759.00,0.0141
2758.00,0.0141
2757.00,0.0141
2756.00,0.0141
2755.00,0.0141
2754.00,0.0141
2753.00,0.0141
2752.00,0.0141
2751.00,0.0141
2750.00,0.0141
2749.00,0.0141
2748.00,0.0141
2747.00,0.0141
2746.00,0.0141
2745.00,0.0141
2744.00,0.0141
2743.00,0.0141
2742.00,0.0141
2741.00,0.0141
2740.00,0.0141
2739.00,0.0141
2738.00,0.0141
2737.00,0.0141
2736.00,0.0141
2735.00,0.0141
2734.00,0.0141
2733.00,0.0141
2732.00,0.0141
2731.00,0.0141
2730.00,0.0141
2729.00,0.0141
2728.00,0.0141
2727.00,0.0141
2726.00,0.0141
2725.00,0.0141
2724.00,0.0141
2723.00,0.0141
2722.00,0.0141
2721.00,0.0141
2720.00,0.0141
2719.00,0.0141
2718.00,0.0141
2717.00,0.0141
2716.00,0.0141
2715.00,0.0141
2714.00,0.0141
2713.00,0.0141
2712.00,0.0141
2711.00,0.0141
2710.00,0.0141
2709.00,0.0141
2708.00,0.0141
2707.00,0.0141
2706.00,0.0141
2705.00,0.0141
2704.00,0.0141
2703.00,0.0141
2702.00,0.0141
2701.00,0.0141
2700.00,0.0141
2699.00,0.0141
2698.00,0.0141
2697.00,0.0141
2696.00,0.0141
2695.00,0.0141
2694.00,0.0141
2693.00,0.0141
2692.00,0.0141
2691.00,0.0141
2690.00,0.0141
2689.00,0.0141
2688.00,0.0141
2687.00,0.0141
2686.00,0.0141
2685.00,0.0141
2684.00,0.0141
2683.00,0.0141
2682.00,0.0142
2681.00,0.0142
2680.00,0.0142
2679.00,0.0142
2678.00,0.0142
2677.00,0.0142
2676.00,0.0142
2675.00,0.0142
2674.00,0.0142
2673.00,0.0142
