Created as New Dataset,Sample 026 By Analyst Date Friday, March 28 2025
cm-1,A
4000.00,-0.0006
3999.00,-0.0006
3998.00,-0.0006
3997.00,-0.0006
3996.00,-0.0006
3995.00,-0.0006
3994.00,-0.0006
3993.00,-0.0006
3992.00,-0.0006
3991.00,-0.0006
3990.00,-0.0006
3989.00,-0.0006
3988.00,-0.0006
3987.00,-0.0005
3986.00,-0.0005
3985.00,-0.0005
3984.00,-0.0005
3983.00,-0.0006
3982.00,-0.0006
3981.00,-0.0006
3980.00,-0.0006
3979.00,-0.0005
3978.00,-0.0005
3977.00,-0.0005
3976.00,-0.0006
3975.00,-0.0006
3974.00,-0.0006
3973.00,-0.0005
3972.00,-0.0005
3971.00,-0.0005
3970.00,-0.0005
3969.00,-0.0005
3968.00,-0.0005
3967.00,-0.0005
3966.00,-0.0005
3965.00,-0.0005
3964.00,-0.0005
3963.00,-0.0005
3962.00,-0.0005
3961.00,-0.0005
3960.00,-0.0005
3959.00,-0.0005
3958.00,-0.0005
3957.00,-0.0005
3956.00,-0.0005
3955.00,-0.0006
3954.00,-0.0006
3953.00,-0.0006
3952.00,-0.0006
3951.00,-0.0006
3950.00,-0.0006
3949.00,-0.0005
3948.00,-0.0005
3947.00,-0.0005
3946.00,-0.0005
3945.00,-0.0005
3944.00,-0.0006
3943.00,-0.0006
3942.00,-0.0006
3941.00,-0.0006
3940.00,-0.0006
3939.00,-0.0005
3938.00,-0.0005
3937.00,-0.0005
3936.00,-0.0005
3935.00,-0.0005
3934.00,-0.0005
3933.00,-0.0005
3932.00,-0.0005
3931.00,-0.0005
3930.00,-0.0005
3929.00,-0.0005
3928.00,-0.0006
3927.00,-0.0006
3926.00,-0.0006
3925.00,-0.0006
3924.00,-0.0006
3923.00,-0.0006
3922.00,-0.0005
3921.00,-0.0005
3920.00,-0.0005
3919.00,-0.0006
3918.00,-0.0006
3917.00,-0.0006
3916.00,-0.0006
3915.00,-0.0006
3914.00,-0.0006
3913.00,-0.0006
3912.00,-0.0005
3911.00,-0.0005
3910.00,-0.0005
3909.00,-0.0005
3908.00,-0.0005
3907.00,-0.0005
3906.00,-0.0005
3905.00,-0.0005
3904.00,-0.0006
3903.00,-0.0006
3902.00,-0.0006
3901.00,-0.0006
3900.00,-0.0006
3899.00,-0.0006
3898.00,-0.0006
3897.00,-0.0006
3896.00,-0.0006
3895.00,-0.0006
3894.00,-0.0006
3893.00,-0.0006
3892.00,-0.0005
3891.00,-0.0005
3890.00,-0.0005
3889.00,-0.0005
3888.00,-0.0005
3887.00,-0.0006
3886.00,-0.0006
3885.00,-0.0006
3884.00,-0.0006
3883.00,-0.0005
3882.00,-0.0005
3881.00,-0.0006
3880.00,-0.0006
3879.00,-0.0005
3878.00,-0.0005
3877.00,-0.0005
3876.00,-0.0005
3875.00,-0.0005
3874.00,-0.0005
3873.00,-0.0005
3872.00,-0.0005
3871.00,-0.0005
3870.00,-0.0005
3869.00,-0.0005
3868.00,-0.0005
3867.00,-0.0005
3866.00,-0.0005
3865.00,-0.0005
3864.00,-0.0005
3863.00,-0.0005
3862.00,-0.0005
3861.00,-0.0005
3860.00,-0.0005
3859.00,-0.0005
3858.00,-0.0005
3857.00,-0.0005
3856.00,-0.0005
3855.00,-0.0005
3854.00,-0.0005
3853.00,-0.0005
3852.00,-0.0005
3851.00,-0.0005
3850.00,-0.0005
3849.00,-0.0005
3848.00,-0.0005
3847.00,-0.0005
3846.00,-0.0005
3845.00,-0.0005
3844.00,-0.0005
3843.00,-0.0005
3842.00,-0.0005
3841.00,-0.0005
3840.00,-0.0005
3839.00,-0.0005
3838.00,-0.0005
3837.00,-0.0005
3836.00,-0.0005
3835.00,-0.0005
3834.00,-0.0005
3833.00,-0.0005
3832.00,-0.0005
3831.00,-0.0005
3830.00,-0.0005
3829.00,-0.0005
3828.00,-0.0005
3827.00,-0.0005
3826.00,-0.0005
3825.00,-0.0005
3824.00,-0.0005
3823.00,-0.0006
3822.00,-0.0006
3821.00,-0.0006
3820.00,-0.0005
3819.00,-0.0005
3818.00,-0.0005
3817.00,-0.0005
3816.00,-0.0005
3815.00,-0.0005
3814.00,-0.0005
3813.00,-0.0005
3812.00,-0.0005
3811.00,-0.0005
3810.00,-0.0005
3809.00,-0.0005
3808.00,-0.0005
3807.00,-0.0005
3806.00,-0.0005
3805.00,-0.0005
3804.00,-0.0005
3803.00,-0.0005
3802.00,-0.0005
3801.00,-0.0005
3800.00,-0.0005
3799.00,-0.0005
3798.00,-0.0005
3797.00,-0.0005
3796.00,-0.0005
3795.00,-0.0004
3794.00,-0.0004
3793.00,-0.0004
3792.00,-0.0004
3791.00,-0.0004
3790.00,-0.0004
3789.00,-0.0004
3788.00,-0.0004
3787.00,-0.0004
3786.00,-0.0004
3785.00,-0.0004
3784.00,-0.0004
3783.00,-0.0004
3782.00,-0.0004
3781.00,-0.0004
3780.00,-0.0004
3779.00,-0.0004
3778.00,-0.0004
3777.00,-0.0004
3776.00,-0.0005
3775.00,-0.0005
3774.00,-0.0005
3773.00,-0.0005
3772.00,-0.0005
3771.00,-0.0005
3770.00,-0.0005
3769.00,-0.0005
3768.00,-0.0005
3767.00,-0.0005
3766.00,-0.0004
3765.00,-0.0004
3764.00,-0.0004
3763.00,-0.0005
3762.00,-0.0005
3761.00,-0.0005
3760.00,-0.0005
3759.00,-0.0005
3758.00,-0.0005
3757.00,-0.0005
3756.00,-0.0004
3755.00,-0.0004
3754.00,-0.0004
3753.00,-0.0004
3752.00,-0.0004
3751.00,-0.0004
3750.00,-0.0005
3749.00,-0.0005
3748.00,-0.0005
3747.00,-0.0005
3746.00,-0.0005
3745.00,-0.0005
3744.00,-0.0005
3743.00,-0.0004
3742.00,-0.0004
3741.00,-0.0004
3740.00,-0.0005
3739.00,-0.0005
3738.00,-0.0005
3737.00,-0.0005
3736.00,-0.0005
3735.00,-0.0005
3734.00,-0.0005
3733.00,-0.0005
3732.00,-0.0005
3731.00,-0.0005
3730.00,-0.0005
3729.00,-0.0004
3728.00,-0.0004
3727.00,-0.0004
3726.00,-0.0004
3725.00,-0.0004
3724.00,-0.0004
3723.00,-0.0005
3722.00,-0.0005
3721.00,-0.0004
3720.00,-0.0004
3719.00,-0.0004
3718.00,-0.0004
3717.00,-0.0004
3716.00,-0.0004
3715.00,-0.0004
3714.00,-0.0004
3713.00,-0.0004
3712.00,-0.0004
3711.00,-0.0004
3710.00,-0.0004
3709.00,-0.0004
3708.00,-0.0004
3707.00,-0.0004
3706.00,-0.0004
3705.00,-0.0004
3704.00,-0.0005
3703.00,-0.0005
3702.00,-0.0005
3701.00,-0.0005
3700.00,-0.0004
3699.00,-0.0004
3698.00,-0.0004
3697.00,-0.0004
3696.00,-0.0004
3695.00,-0.0004
3694.00,-0.0005
3693.00,-0.0005
3692.00,-0.0005
3691.00,-0.0005
3690.00,-0.0004
3689.00,-0.0004
3688.00,-0.0004
3687.00,-0.0004
3686.00,-0.0004
3685.00,-0.0004
3684.00,-0.0004
3683.00,-0.0004
3682.00,-0.0004
3681.00,-0.0004
3680.00,-0.0004
3679.00,-0.0004
3678.00,-0.0004
3677.00,-0.0004
3676.00,-0.0004
3675.00,-0.0004
3674.00,-0.0004
3673.00,-0.0004
3672.00,-0.0004
3671.00,-0.0004
3670.00,-0.0004
3669.00,-0.0004
3668.00,-0.0004
3667.00,-0.0004
3666.00,-0.0004
3665.00,-0.0004
3664.00,-0.0004
3663.00,-0.0004
3662.00,-0.0004
3661.00,-0.0004
3660.00,-0.0004
3659.00,-0.0004
3658.00,-0.0004
3657.00,-0.0004
3656.00,-0.0004
3655.00,-0.0004
3654.00,-0.0004
3653.00,-0.0004
3652.00,-0.0005
3651.00,-0.0005
3650.00,-0.0005
3649.00,-0.0004
3648.00,-0.0004
3647.00,-0.0004
3646.00,-0.0004
3645.00,-0.0004
3644.00,-0.0004
3643.00,-0.0004
3642.00,-0.0004
3641.00,-0.0004
3640.00,-0.0004
3639.00,-0.0004
3638.00,-0.0004
3637.00,-0.0004
3636.00,-0.0004
3635.00,-0.0005
3634.00,-0.0005
3633.00,-0.0005
3632.00,-0.0005
3631.00,-0.0005
3630.00,-0.0005
3629.00,-0.0005
3628.00,-0.0005
3627.00,-0.0005
3626.00,-0.0005
3625.00,-0.0005
3624.00,-0.0005
3623.00,-0.0004
3622.00,-0.0004
3621.00,-0.0005
3620.00,-0.0005
3619.00,-0.0005
3618.00,-0.0005
3617.00,-0.0005
3616.00,-0.0005
3615.00,-0.0005
3614.00,-0.0005
3613.00,-0.0005
3612.00,-0.0005
3611.00,-0.0005
3610.00,-0.0005
3609.00,-0.0005
3608.00,-0.0005
3607.00,-0.0005
3606.00,-0.0005
3605.00,-0.0005
3604.00,-0.0005
3603.00,-0.0005
3602.00,-0.0004
3601.00,-0.0004
3600.00,-0.0004
3599.00,-0.0004
3598.00,-0.0005
3597.00,-0.0005
3596.00,-0.0005
3595.00,-0.0005
3594.00,-0.0005
3593.00,-0.0004
3592.00,-0.0004
3591.00,-0.0004
3590.00,-0.0004
3589.00,-0.0004
3588.00,-0.0004
3587.00,-0.0004
3586.00,-0.0005
3585.00,-0.0005
3584.00,-0.0005
3583.00,-0.0004
3582.00,-0.0004
3581.00,-0.0004
3580.00,-0.0004
3579.00,-0.0005
3578.00,-0.0005
3577.00,-0.0005
3576.00,-0.0005
3575.00,-0.0005
3574.00,-0.0005
3573.00,-0.0005
3572.00,-0.0005
3571.00,-0.0005
3570.00,-0.0005
3569.00,-0.0005
3568.00,-0.0005
3567.00,-0.0005
3566.00,-0.0005
3565.00,-0.0005
3564.00,-0.0005
3563.00,-0.0004
3562.00,-0.0004
3561.00,-0.0004
3560.00,-0.0004
3559.00,-0.0004
3558.00,-0.0004
3557.00,-0.0005
3556.00,-0.0005
3555.00,-0.0005
3554.00,-0.0005
3553.00,-0.0005
3552.00,-0.0005
3551.00,-0.0005
3550.00,-0.0005
3549.00,-0.0005
3548.00,-0.0005
3547.00,-0.0005
3546.00,-0.0005
3545.00,-0.0005
3544.00,-0.0005
3543.00,-0.0005
3542.00,-0.0005
3541.00,-0.0005
3540.00,-0.0005
3539.00,-0.0005
3538.00,-0.0005
3537.00,-0.0005
3536.00,-0.0005
3535.00,-0.0005
3534.00,-0.0005
3533.00,-0.0005
3532.00,-0.0005
3531.00,-0.0005
3530.00,-0.0005
3529.00,-0.0004
3528.00,-0.0004
3527.00,-0.0005
3526.00,-0.0005
3525.00,-0.0005
3524.00,-0.0005
3523.00,-0.0005
3522.00,-0.0005
3521.00,-0.0005
3520.00,-0.0005
3519.00,-0.0005
3518.00,-0.0005
3517.00,-0.0005
3516.00,-0.0005
3515.00,-0.0005
3514.00,-0.0005
3513.00,-0.0005
3512.00,-0.0005
3511.00,-0.0005
3510.00,-0.0005
3509.00,-0.0005
3508.00,-0.0005
3507.00,-0.0005
3506.00,-0.0005
3505.00,-0.0005
3504.00,-0.0005
3503.00,-0.0005
3502.00,-0.0005
3501.00,-0.0005
3500.00,-0.0005
3499.00,-0.0005
3498.00,-0.0005
3497.00,-0.0005
3496.00,-0.0005
3495.00,-0.0005
3494.00,-0.0005
3493.00,-0.0005
3492.00,-0.0005
3491.00,-0.0005
3490.00,-0.0005
3489.00,-0.0005
3488.00,-0.0005
3487.00,-0.0005
3486.00,-0.0005
3485.00,-0.0005
3484.00,-0.0005
3483.00,-0.0005
3482.00,-0.0005
3481.00,-0.0005
3480.00,-0.0005
3479.00,-0.0005
3478.00,-0.0005
3477.00,-0.0005
3476.00,-0.0005
3475.00,-0.0005
3474.00,-0.0005
3473.00,-0.0005
3472.00,-0.0005
3471.00,-0.0005
3470.00,-0.0005
3469.00,-0.0006
3468.00,-0.0006
3467.00,-0.0006
3466.00,-0.0006
3465.00,-0.0006
3464.00,-0.0006
3463.00,-0.0006
3462.00,-0.0005
3461.00,-0.0005
3460.00,-0.0005
3459.00,-0.0005
3458.00,-0.0005
3457.00,-0.0005
3456.00,-0.0005
3455.00,-0.0005
3454.00,-0.0005
3453.00,-0.0005
3452.00,-0.0005
3451.00,-0.0005
3450.00,-0.0005
3449.00,-0.0005
3448.00,-0.0006
3447.00,-0.0006
3446.00,-0.0006
3445.00,-0.0006
3444.00,-0.0006
3443.00,-0.0006
3442.00,-0.0005
3441.00,-0.0006
3440.00,-0.0006
3439.00,-0.0006
3438.00,-0.0006
3437.00,-0.0005
3436.00,-0.0005
3435.00,-0.0005
3434.00,-0.0005
3433.00,-0.0005
3432.00,-0.0005
3431.00,-0.0006
3430.00,-0.0006
3429.00,-0.0006
3428.00,-0.0006
3427.00,-0.0006
3426.00,-0.0006
3425.00,-0.0006
3424.00,-0.0005
3423.00,-0.0005
3422.00,-0.0005
3421.00,-0.0006
3420.00,-0.0006
3419.00,-0.0006
3418.00,-0.0006
3417.00,-0.0006
3416.00,-0.0006
3415.00,-0.0006
3414.00,-0.0006
3413.00,-0.0006
3412.00,-0.0006
3411.00,-0.0006
3410.00,-0.0006
3409.00,-0.0006
3408.00,-0.0006
3407.00,-0.0005
3406.00,-0.0005
3405.00,-0.0005
3404.00,-0.0005
3403.00,-0.0005
3402.00,-0.0006
3401.00,-0.0006
3400.00,-0.0006
3399.00,-0.0006
3398.00,-0.0006
3397.00,-0.0006
3396.00,-0.0006
3395.00,-0.0006
3394.00,-0.0006
3393.00,-0.0006
3392.00,-0.0006
3391.00,-0.0005
3390.00,-0.0005
3389.00,-0.0005
3388.00,-0.0006
3387.00,-0.0006
3386.00,-0.0006
3385.00,-0.0006
3384.00,-0.0006
3383.00,-0.0006
3382.00,-0.0006
3381.00,-0.0006
3380.00,-0.0005
3379.00,-0.0005
3378.00,-0.0005
3377.00,-0.0005
3376.00,-0.0005
3375.00,-0.0006
3374.00,-0.0006
3373.00,-0.0006
3372.00,-0.0006
3371.00,-0.0006
3370.00,-0.0006
3369.00,-0.0005
3368.00,-0.0005
3367.00,-0.0005
3366.00,-0.0005
3365.00,-0.0005
3364.00,-0.0006
3363.00,-0.0006
3362.00,-0.0006
3361.00,-0.0006
3360.00,-0.0006
3359.00,-0.0006
3358.00,-0.0006
3357.00,-0.0006
3356.00,-0.0005
3355.00,-0.0005
3354.00,-0.0006
3353.00,-0.0006
3352.00,-0.0005
3351.00,-0.0005
3350.00,-0.0005
3349.00,-0.0005
3348.00,-0.0005
3347.00,-0.0005
3346.00,-0.0005
3345.00,-0.0005
3344.00,-0.0005
3343.00,-0.0005
3342.00,-0.0005
3341.00,-0.0005
3340.00,-0.0005
3339.00,-0.0005
3338.00,-0.0005
3337.00,-0.0005
3336.00,-0.0005
3335.00,-0.0005
3334.00,-0.0005
3333.00,-0.0005
3332.00,-0.0005
3331.00,-0.0005
3330.00,-0.0005
3329.00,-0.0005
3328.00,-0.0005
3327.00,-0.0005
3326.00,-0.0005
3325.00,-0.0005
3324.00,-0.0005
3323.00,-0.0005
3322.00,-0.0005
3321.00,-0.0005
3320.00,-0.0005
3319.00,-0.0005
3318.00,-0.0005
3317.00,-0.0005
3316.00,-0.0005
3315.00,-0.0005
3314.00,-0.0005
3313.00,-0.0005
3312.00,-0.0005
3311.00,-0.0005
3310.00,-0.0005
3309.00,-0.0005
3308.00,-0.0005
3307.00,-0.0005
3306.00,-0.0005
3305.00,-0.0005
3304.00,-0.0005
3303.00,-0.0005
3302.00,-0.0005
3301.00,-0.0005
3300.00,-0.0005
3299.00,-0.0005
3298.00,-0.0005
3297.00,-0.0005
3296.00,-0.0005
3295.00,-0.0005
3294.00,-0.0005
3293.00,-0.0005
3292.00,-0.0005
3291.00,-0.0005
3290.00,-0.0005
3289.00,-0.0005
3288.00,-0.0005
3287.00,-0.0005
3286.00,-0.0005
3285.00,-0.0005
3284.00,-0.0005
3283.00,-0.0005
3282.00,-0.0005
3281.00,-0.0005
3280.00,-0.0005
3279.00,-0.0004
3278.00,-0.0004
3277.00,-0.0004
3276.00,-0.0004
3275.00,-0.0004
3274.00,-0.0004
3273.00,-0.0005
3272.00,-0.0005
3271.00,-0.0005
3270.00,-0.0005
3269.00,-0.0004
3268.00,-0.0004
3267.00,-0.0004
3266.00,-0.0004
3265.00,-0.0004
3264.00,-0.0004
3263.00,-0.0004
3262.00,-0.0004
3261.00,-0.0005
3260.00,-0.0005
3259.00,-0.0005
3258.00,-0.0005
3257.00,-0.0005
3256.00,-0.0005
3255.00,-0.0005
3254.00,-0.0005
3253.00,-0.0005
3252.00,-0.0005
3251.00,-0.0005
3250.00,-0.0004
3249.00,-0.0004
3248.00,-0.0004
3247.00,-0.0005
3246.00,-0.0005
3245.00,-0.0005
3244.00,-0.0005
3243.00,-0.0005
3242.00,-0.0005
3241.00,-0.0005
3240.00,-0.0005
3239.00,-0.0005
3238.00,-0.0005
3237.00,-0.0005
3236.00,-0.0005
3235.00,-0.0005
3234.00,-0.0005
3233.00,-0.0005
3232.00,-0.0005
3231.00,-0.0005
3230.00,-0.0004
3229.00,-0.0004
3228.00,-0.0004
3227.00,-0.0005
3226.00,-0.0005
3225.00,-0.0005
3224.00,-0.0004
3223.00,-0.0004
3222.00,-0.0004
3221.00,-0.0004
3220.00,-0.0004
3219.00,-0.0004
3218.00,-0.0004
3217.00,-0.0004
3216.00,-0.0004
3215.00,-0.0004
3214.00,-0.0004
3213.00,-0.0004
3212.00,-0.0004
3211.00,-0.0004
3210.00,-0.0004
3209.00,-0.0004
3208.00,-0.0004
3207.00,-0.0004
3206.00,-0.0004
3205.00,-0.0004
3204.00,-0.0004
3203.00,-0.0004
3202.00,-0.0004
3201.00,-0.0004
3200.00,-0.0004
3199.00,-0.0004
3198.00,-0.0004
3197.00,-0.0004
3196.00,-0.0004
3195.00,-0.0005
3194.00,-0.0005
3193.00,-0.0004
3192.00,-0.0004
3191.00,-0.0004
3190.00,-0.0004
3189.00,-0.0004
3188.00,-0.0004
3187.00,-0.0004
3186.00,-0.0004
3185.00,-0.0004
3184.00,-0.0004
3183.00,-0.0004
3182.00,-0.0004
3181.00,-0.0004
3180.00,-0.0004
3179.00,-0.0004
3178.00,-0.0004
3177.00,-0.0004
3176.00,-0.0004
3175.00,-0.0004
3174.00,-0.0004
3173.00,-0.0004
3172.00,-0.0004
3171.00,-0.0004
3170.00,-0.0004
3169.00,-0.0004
3168.00,-0.0004
3167.00,-0.0004
3166.00,-0.0004
3165.00,-0.0004
3164.00,-0.0004
3163.00,-0.0004
3162.00,-0.0004
3161.00,-0.0004
3160.00,-0.0004
3159.00,-0.0004
3158.00,-0.0004
3157.00,-0.0004
3156.00,-0.0004
3155.00,-0.0004
3154.00,-0.0004
3153.00,-0.0004
3152.00,-0.0004
3151.00,-0.0004
3150.00,-0.0004
3149.00,-0.0004
3148.00,-0.0004
3147.00,-0.0004
3146.00,-0.0004
3145.00,-0.0004
3144.00,-0.0004
3143.00,-0.0003
3142.00,-0.0003
3141.00,-0.0004
3140.00,-0.0004
3139.00,-0.0004
3138.00,-0.0004
3137.00,-0.0004
3136.00,-0.0004
3135.00,-0.0004
3134.00,-0.0004
3133.00,-0.0004
3132.00,-0.0004
3131.00,-0.0003
3130.00,-0.0003
3129.00,-0.0003
3128.00,-0.0003
3127.00,-0.0003
3126.00,-0.0004
3125.00,-0.0004
3124.00,-0.0004
3123.00,-0.0004
3122.00,-0.0004
3121.00,-0.0004
3120.00,-0.0004
3119.00,-0.0004
3118.00,-0.0004
3117.00,-0.0004
3116.00,-0.0004
3115.00,-0.0004
3114.00,-0.0004
3113.00,-0.0004
3112.00,-0.0004
3111.00,-0.0004
3110.00,-0.0004
3109.00,-0.0004
3108.00,-0.0004
3107.00,-0.0004
3106.00,-0.0004
3105.00,-0.0004
3104.00,-0.0004
3103.00,-0.0003
3102.00,-0.0003
3101.00,-0.0003
3100.00,-0.0003
3099.00,-0.0003
3098.00,-0.0004
3097.00,-0.0003
3096.00,-0.0003
3095.00,-0.0004
3094.00,-0.0004
3093.00,-0.0004
3092.00,-0.0004
3091.00,-0.0004
3090.00,-0.0004
3089.00,-0.0004
3088.00,-0.0003
3087.00,-0.0003
3086.00,-0.0003
3085.00,-0.0003
3084.00,-0.0003
3083.00,-0.0003
3082.00,-0.0003
3081.00,-0.0003
3080.00,-0.0004
3079.00,-0.0004
3078.00,-0.0004
3077.00,-0.0004
3076.00,-0.0003
3075.00,-0.0003
3074.00,-0.0003
3073.00,-0.0003
3072.00,-0.0003
3071.00,-0.0003
3070.00,-0.0003
3069.00,-0.0003
3068.00,-0.0003
3067.00,-0.0003
3066.00,-0.0003
3065.00,-0.0003
3064.00,-0.0003
3063.00,-0.0003
3062.00,-0.0003
3061.00,-0.0003
3060.00,-0.0003
3059.00,-0.0003
3058.00,-0.0003
3057.00,-0.0003
3056.00,-0.0003
3055.00,-0.0004
3054.00,-0.0004
3053.00,-0.0004
3052.00,-0.0003
3051.00,-0.0003
3050.00,-0.0003
3049.00,-0.0003
3048.00,-0.0003
3047.00,-0.0003
3046.00,-0.0003
3045.00,-0.0003
3044.00,-0.0003
3043.00,-0.0003
3042.00,-0.0004
3041.00,-0.0004
3040.00,-0.0004
3039.00,-0.0004
3038.00,-0.0004
3037.00,-0.0003
3036.00,-0.0003
3035.00,-0.0003
3034.00,-0.0003
3033.00,-0.0003
3032.00,-0.0003
3031.00,-0.0003
3030.00,-0.0003
3029.00,-0.0003
3028.00,-0.0003
3027.00,-0.0003
3026.00,-0.0003
3025.00,-0.0003
3024.00,-0.0003
3023.00,-0.0003
3022.00,-0.0003
3021.00,-0.0003
3020.00,-0.0003
3019.00,-0.0003
3018.00,-0.0003
3017.00,-0.0003
3016.00,-0.0003
3015.00,-0.0003
3014.00,-0.0003
3013.00,-0.0003
3012.00,-0.0003
3011.00,-0.0003
3010.00,-0.0003
3009.00,-0.0003
3008.00,-0.0003
3007.00,-0.0003
3006.00,-0.0003
3005.00,-0.0003
3004.00,-0.0003
3003.00,-0.0003
3002.00,-0.0003
3001.00,-0.0003
3000.00,-0.0003
2999.00,-0.0003
2998.00,-0.0003
2997.00,-0.0003
2996.00,-0.0003
2995.00,-0.0003
2994.00,-0.0003
2993.00,-0.0003
2992.00,-0.0003
2991.00,-0.0003
2990.00,-0.0003
2989.00,-0.0003
2988.00,-0.0003
2987.00,-0.0003
2986.00,-0.0003
2985.00,-0.0003
2984.00,-0.0003
2983.00,-0.0003
2982.00,-0.0003
2981.00,-0.0003
2980.00,-0.0003
2979.00,-0.0003
2978.00,-0.0003
2977.00,-0.0003
2976.00,-0.0003
2975.00,-0.0003
2974.00,-0.0003
2973.00,-0.0003
2972.00,-0.0003
2971.00,-0.0003
2970.00,-0.0003
2969.00,-0.0003
2968.00,-0.0003
2967.00,-0.0003
2966.00,-0.0003
2965.00,-0.0003
2964.00,-0.0003
2963.00,-0.0003
2962.00,-0.0003
2961.00,-0.0003
2960.00,-0.0003
2959.00,-0.0003
2958.00,-0.0003
2957.00,-0.0003
2956.00,-0.0003
2955.00,-0.0003
2954.00,-0.0003
2953.00,-0.0003
2952.00,-0.0003
2951.00,-0.0003
2950.00,-0.0003
2949.00,-0.0003
2948.00,-0.0003
2947.00,-0.0003
2946.00,-0.0003
2945.00,-0.0003
2944.00,-0.0003
2943.00,-0.0003
2942.00,-0.0003
2941.00,-0.0003
2940.00,-0.0003
2939.00,-0.0003
2938.00,-0.0003
2937.00,-0.0003
2936.00,-0.0003
2935.00,-0.0003
2934.00,-0.0003
2933.00,-0.0003
2932.00,-0.0003
2931.00,-0.0003
2930.00,-0.0003
2929.00,-0.0003
2928.00,-0.0003
2927.00,-0.0003
2926.00,-0.0003
2925.00,-0.0003
2924.00,-0.0003
2923.00,-0.0003
2922.00,-0.0003
2921.00,-0.0003
2920.00,-0.0003
2919.00,-0.0003
2918.00,-0.0003
2917.00,-0.0003
2916.00,-0.0003
2915.00,-0.0003
2914.00,-0.0003
2913.00,-0.0003
2912.00,-0.0003
2911.00,-0.0003
2910.00,-0.0003
2909.00,-0.0003
2908.00,-0.0003
2907.00,-0.0003
2906.00,-0.0003
2905.00,-0.0003
2904.00,-0.0003
2903.00,-0.0003
2902.00,-0.0003
2901.00,-0.0003
2900.00,-0.0003
2899.00,-0.0003
2898.00,-0.0003
2897.00,-0.0003
2896.00,-0.0003
2895.00,-0.0003
2894.00,-0.0003
2893.00,-0.0003
2892.00,-0.0003
2891.00,-0.0003
2890.00,-0.0003
2889.00,-0.0003
2888.00,-0.0003
2887.00,-0.0003
2886.00,-0.0003
2885.00,-0.0003
2884.00,-0.0003
2883.00,-0.0003
2882.00,-0.0003
2881.00,-0.0003
2880.00,-0.0003
2879.00,-0.0003
2878.00,-0.0003
2877.00,-0.0003
2876.00,-0.0003
2875.00,-0.0002
2874.00,-0.0002
2873.00,-0.0002
2872.00,-0.0003
2871.00,-0.0003
2870.00,-0.0003
2869.00,-0.0003
2868.00,-0.0003
2867.00,-0.0003
2866.00,-0.0003
2865.00,-0.0003
2864.00,-0.0003
2863.00,-0.0003
2862.00,-0.0003
2861.00,-0.0003
2860.00,-0.0003
2859.00,-0.0003
2858.00,-0.0003
2857.00,-0.0003
2856.00,-0.0003
2855.00,-0.0003
2854.00,-0.0003
2853.00,-0.0003
2852.00,-0.0003
2851.00,-0.0003
2850.00,-0.0003
2849.00,-0.0003
2848.00,-0.0003
2847.00,-0.0003
2846.00,-0.0003
2845.00,-0.0003
2844.00,-0.0003
2843.00,-0.0003
2842.00,-0.0003
2841.00,-0.0003
2840.00,-0.0003
2839.00,-0.0003
2838.00,-0.0003
2837.00,-0.0003
2836.00,-0.0003
2835.00,-0.0003
2834.00,-0.0003
2833.00,-0.0003
2832.00,-0.0003
2831.00,-0.0003
2830.00,-0.0003
2829.00,-0.0003
2828.00,-0.0003
2827.00,-0.0003
2826.00,-0.0003
2825.00,-0.0003
2824.00,-0.0003
2823.00,-0.0003
2822.00,-0.0003
2821.00,-0.0003
2820.00,-0.0003
2819.00,-0.0003
2818.00,-0.0003
2817.00,-0.0003
2816.00,-0.0003
2815.00,-0.0003
2814.00,-0.0003
2813.00,-0.0003
2812.00,-0.0003
2811.00,-0.0003
2810.00,-0.0003
2809.00,-0.0003
2808.00,-0.0003
2807.00,-0.0003
2806.00,-0.0003
2805.00,-0.0003
2804.00,-0.0003
2803.00,-0.0003
2802.00,-0.0003
2801.00,-0.0003
2800.00,-0.0003
2799.00,-0.0003
2798.00,-0.0003
2797.00,-0.0003
2796.00,-0.0003
2795.00,-0.0003
2794.00,-0.0003
2793.00,-0.0003
2792.00,-0.0003
2791.00,-0.0003
2790.00,-0.0003
2789.00,-0.0003
2788.00,-0.0003
2787.00,-0.0003
2786.00,-0.0003
2785.00,-0.0003
2784.00,-0.0003
2783.00,-0.0003
2782.00,-0.0003
2781.00,-0.0003
2780.00,-0.0003
2779.00,-0.0003
2778.00,-0.0003
2777.00,-0.0003
2776.00,-0.0003
2775.00,-0.0003
2774.00,-0.0003
2773.00,-0.0003
2772.00,-0.0003
2771.00,-0.0003
2770.00,-0.0003
2769.00,-0.0003
2768.00,-0.0003
2767.00,-0.0003
2766.00,-0.0003
2765.00,-0.0003
2764.00,-0.0003
2763.00,-0.0003
2762.00,-0.0003
2761.00,-0.0003
2760.00,-0.0003
2759.00,-0.0003
2758.00,-0.0003
2757.00,-0.0003
2756.00,-0.0003
