Created as New Dataset,Sample 354 By Analyst Date Tuesday, February 04 2025
cm-1,A
4000.00,-0.0026
3999.00,-0.0026
3998.00,-0.0026
3997.00,-0.0026
3996.00,-0.0026
3995.00,-0.0026
3994.00,-0.0026
3993.00,-0.0026
3992.00,-0.0026
3991.00,-0.0026
3990.00,-0.0026
3989.00,-0.0026
3988.00,-0.0026
3987.00,-0.0026
3986.00,-0.0026
3985.00,-0.0026
3984.00,-0.0026
3983.00,-0.0026
3982.00,-0.0026
3981.00,-0.0026
3980.00,-0.0026
3979.00,-0.0026
3978.00,-0.0026
3977.00,-0.0026
3976.00,-0.0026
3975.00,-0.0026
3974.00,-0.0026
3973.00,-0.0026
3972.00,-0.0026
3971.00,-0.0026
3970.00,-0.0026
3969.00,-0.0026
3968.00,-0.0026
3967.00,-0.0026
3966.00,-0.0026
3965.00,-0.0026
3964.00,-0.0026
3963.00,-0.0026
3962.00,-0.0026
3961.00,-0.0026
3960.00,-0.0026
3959.00,-0.0026
3958.00,-0.0026
3957.00,-0.0026
3956.00,-0.0026
3955.00,-0.0026
3954.00,-0.0026
3953.00,-0.0026
3952.00,-0.0026
3951.00,-0.0025
3950.00,-0.0025
3949.00,-0.0025
3948.00,-0.0025
3947.00,-0.0024
3946.00,-0.0024
3945.00,-0.0024
3944.00,-0.0024
3943.00,-0.0025
3942.00,-0.0025
3941.00,-0.0025
3940.00,-0.0025
3939.00,-0.0025
3938.00,-0.0025
3937.00,-0.0025
3936.00,-0.0025
3935.00,-0.0025
3934.00,-0.0024
3933.00,-0.0024
3932.00,-0.0024
3931.00,-0.0024
3930.00,-0.0024
3929.00,-0.0024
3928.00,-0.0024
3927.00,-0.0025
3926.00,-0.0025
3925.00,-0.0025
3924.00,-0.0025
3923.00,-0.0024
3922.00,-0.0024
3921.00,-0.0023
3920.00,-0.0023
3919.00,-0.0023
3918.00,-0.0023
3917.00,-0.0023
3916.00,-0.0024
3915.00,-0.0024
3914.00,-0.0024
3913.00,-0.0025
3912.00,-0.0025
3911.00,-0.0025
3910.00,-0.0025
3909.00,-0.0025
3908.00,-0.0025
3907.00,-0.0024
3906.00,-0.0024
3905.00,-0.0023
3904.00,-0.0022
3903.00,-0.0021
3902.00,-0.0020
3901.00,-0.0019
3900.00,-0.0020
3899.00,-0.0021
3898.00,-0.0021
3897.00,-0.0022
3896.00,-0.0022
3895.00,-0.0023
3894.00,-0.0023
3893.00,-0.0024
3892.00,-0.0024
3891.00,-0.0024
3890.00,-0.0024
3889.00,-0.0023
3888.00,-0.0022
3887.00,-0.0021
3886.00,-0.0021
3885.00,-0.0022
3884.00,-0.0022
3883.00,-0.0022
3882.00,-0.0021
3881.00,-0.0021
3880.00,-0.0022
3879.00,-0.0023
3878.00,-0.0023
3877.00,-0.0022
3876.00,-0.0022
3875.00,-0.0022
3874.00,-0.0023
3873.00,-0.0023
3872.00,-0.0022
3871.00,-0.0021
3870.00,-0.0021
3869.00,-0.0021
3868.00,-0.0021
3867.00,-0.0021
3866.00,-0.0020
3865.00,-0.0021
3864.00,-0.0022
3863.00,-0.0022
3862.00,-0.0022
3861.00,-0.0021
3860.00,-0.0022
3859.00,-0.0022
3858.00,-0.0024
3857.00,-0.0025
3856.00,-0.0025
3855.00,-0.0025
3854.00,-0.0024
3853.00,-0.0023
3852.00,-0.0022
3851.00,-0.0022
3850.00,-0.0021
3849.00,-0.0021
3848.00,-0.0022
3847.00,-0.0022
3846.00,-0.0023
3845.00,-0.0023
3844.00,-0.0023
3843.00,-0.0022
3842.00,-0.0022
3841.00,-0.0022
3840.00,-0.0021
3839.00,-0.0021
3838.00,-0.0021
3837.00,-0.0021
3836.00,-0.0021
3835.00,-0.0021
3834.00,-0.0021
3833.00,-0.0021
3832.00,-0.0022
3831.00,-0.0022
3830.00,-0.0023
3829.00,-0.0023
3828.00,-0.0023
3827.00,-0.0023
3826.00,-0.0023
3825.00,-0.0023
3824.00,-0.0022
3823.00,-0.0021
3822.00,-0.0021
3821.00,-0.0021
3820.00,-0.0022
3819.00,-0.0022
3818.00,-0.0021
3817.00,-0.0021
3816.00,-0.0022
3815.00,-0.0023
3814.00,-0.0024
3813.00,-0.0024
3812.00,-0.0024
3811.00,-0.0024
3810.00,-0.0024
3809.00,-0.0024
3808.00,-0.0024
3807.00,-0.0023
3806.00,-0.0023
3805.00,-0.0023
3804.00,-0.0022
3803.00,-0.0022
3802.00,-0.0022
3801.00,-0.0023
3800.00,-0.0023
3799.00,-0.0022
3798.00,-0.0021
3797.00,-0.0021
3796.00,-0.0022
3795.00,-0.0023
3794.00,-0.0023
3793.00,-0.0023
3792.00,-0.0024
3791.00,-0.0024
3790.00,-0.0025
3789.00,-0.0025
3788.00,-0.0025
3787.00,-0.0025
3786.00,-0.0024
3785.00,-0.0024
3784.00,-0.0024
3783.00,-0.0024
3782.00,-0.0024
3781.00,-0.0023
3780.00,-0.0023
3779.00,-0.0024
3778.00,-0.0024
3777.00,-0.0024
3776.00,-0.0024
3775.00,-0.0024
3774.00,-0.0024
3773.00,-0.0024
3772.00,-0.0024
3771.00,-0.0023
3770.00,-0.0023
3769.00,-0.0023
3768.00,-0.0022
3767.00,-0.0022
3766.00,-0.0022
3765.00,-0.0022
3764.00,-0.0023
3763.00,-0.0023
3762.00,-0.0022
3761.00,-0.0022
3760.00,-0.0022
3759.00,-0.0022
3758.00,-0.0022
3757.00,-0.0022
3756.00,-0.0021
3755.00,-0.0021
3754.00,-0.0021
3753.00,-0.0020
3752.00,-0.0020
3751.00,-0.0019
3750.00,-0.0019
3749.00,-0.0018
3748.00,-0.0018
3747.00,-0.0018
3746.00,-0.0018
3745.00,-0.0018
3744.00,-0.0019
3743.00,-0.0019
3742.00,-0.0019
3741.00,-0.0018
3740.00,-0.0017
3739.00,-0.0017
3738.00,-0.0017
3737.00,-0.0017
3736.00,-0.0017
3735.00,-0.0018
3734.00,-0.0018
3733.00,-0.0018
3732.00,-0.0019
3731.00,-0.0019
3730.00,-0.0020
3729.00,-0.0020
3728.00,-0.0020
3727.00,-0.0020
3726.00,-0.0021
3725.00,-0.0021
3724.00,-0.0021
3723.00,-0.0021
3722.00,-0.0021
3721.00,-0.0021
3720.00,-0.0022
3719.00,-0.0022
3718.00,-0.0022
3717.00,-0.0022
3716.00,-0.0022
3715.00,-0.0022
3714.00,-0.0021
3713.00,-0.0021
3712.00,-0.0020
3711.00,-0.0020
3710.00,-0.0020
3709.00,-0.0020
3708.00,-0.0021
3707.00,-0.0022
3706.00,-0.0022
3705.00,-0.0023
3704.00,-0.0023
3703.00,-0.0023
3702.00,-0.0024
3701.00,-0.0024
3700.00,-0.0024
3699.00,-0.0023
3698.00,-0.0023
3697.00,-0.0023
3696.00,-0.0023
3695.00,-0.0023
3694.00,-0.0023
3693.00,-0.0023
3692.00,-0.0023
3691.00,-0.0023
3690.00,-0.0022
3689.00,-0.0022
3688.00,-0.0022
3687.00,-0.0022
3686.00,-0.0022
3685.00,-0.0022
3684.00,-0.0022
3683.00,-0.0022
3682.00,-0.0022
3681.00,-0.0022
3680.00,-0.0022
3679.00,-0.0022
3678.00,-0.0021
3677.00,-0.0020
3676.00,-0.0019
3675.00,-0.0019
3674.00,-0.0019
3673.00,-0.0019
3672.00,-0.0018
3671.00,-0.0018
3670.00,-0.0019
3669.00,-0.0020
3668.00,-0.0021
3667.00,-0.0021
3666.00,-0.0022
3665.00,-0.0022
3664.00,-0.0023
3663.00,-0.0023
3662.00,-0.0024
3661.00,-0.0024
3660.00,-0.0024
3659.00,-0.0023
3658.00,-0.0023
3657.00,-0.0023
3656.00,-0.0022
3655.00,-0.0022
3654.00,-0.0021
3653.00,-0.0020
3652.00,-0.0019
3651.00,-0.0018
3650.00,-0.0018
3649.00,-0.0017
3648.00,-0.0017
3647.00,-0.0017
3646.00,-0.0018
3645.00,-0.0019
3644.00,-0.0020
3643.00,-0.0021
3642.00,-0.0022
3641.00,-0.0023
3640.00,-0.0023
3639.00,-0.0023
3638.00,-0.0023
3637.00,-0.0023
3636.00,-0.0023
3635.00,-0.0022
3634.00,-0.0022
3633.00,-0.0022
3632.00,-0.0021
3631.00,-0.0020
3630.00,-0.0019
3629.00,-0.0019
3628.00,-0.0020
3627.00,-0.0020
3626.00,-0.0020
3625.00,-0.0020
3624.00,-0.0021
3623.00,-0.0022
3622.00,-0.0023
3621.00,-0.0023
3620.00,-0.0023
3619.00,-0.0022
3618.00,-0.0021
3617.00,-0.0020
3616.00,-0.0020
3615.00,-0.0019
3614.00,-0.0019
3613.00,-0.0019
3612.00,-0.0019
3611.00,-0.0019
3610.00,-0.0018
3609.00,-0.0019
3608.00,-0.0020
3607.00,-0.0021
3606.00,-0.0021
3605.00,-0.0022
3604.00,-0.0022
3603.00,-0.0022
3602.00,-0.0023
3601.00,-0.0023
3600.00,-0.0023
3599.00,-0.0023
3598.00,-0.0022
3597.00,-0.0022
3596.00,-0.0022
3595.00,-0.0022
3594.00,-0.0022
3593.00,-0.0022
3592.00,-0.0022
3591.00,-0.0021
3590.00,-0.0020
3589.00,-0.0020
3588.00,-0.0020
3587.00,-0.0021
3586.00,-0.0021
3585.00,-0.0021
3584.00,-0.0021
3583.00,-0.0022
3582.00,-0.0023
3581.00,-0.0023
3580.00,-0.0024
3579.00,-0.0024
3578.00,-0.0024
3577.00,-0.0024
3576.00,-0.0024
3575.00,-0.0024
3574.00,-0.0024
3573.00,-0.0024
3572.00,-0.0023
3571.00,-0.0022
3570.00,-0.0021
3569.00,-0.0021
3568.00,-0.0020
3567.00,-0.0020
3566.00,-0.0020
3565.00,-0.0021
3564.00,-0.0021
3563.00,-0.0021
3562.00,-0.0022
3561.00,-0.0023
3560.00,-0.0024
3559.00,-0.0024
3558.00,-0.0024
3557.00,-0.0024
3556.00,-0.0024
3555.00,-0.0024
3554.00,-0.0024
3553.00,-0.0024
3552.00,-0.0024
3551.00,-0.0024
3550.00,-0.0023
3549.00,-0.0023
3548.00,-0.0023
3547.00,-0.0023
3546.00,-0.0023
3545.00,-0.0023
3544.00,-0.0023
3543.00,-0.0023
3542.00,-0.0024
3541.00,-0.0024
3540.00,-0.0024
3539.00,-0.0024
3538.00,-0.0025
3537.00,-0.0025
3536.00,-0.0025
3535.00,-0.0025
3534.00,-0.0025
3533.00,-0.0025
3532.00,-0.0025
3531.00,-0.0024
3530.00,-0.0024
3529.00,-0.0024
3528.00,-0.0024
3527.00,-0.0024
3526.00,-0.0023
3525.00,-0.0023
3524.00,-0.0024
3523.00,-0.0024
3522.00,-0.0024
3521.00,-0.0024
3520.00,-0.0024
3519.00,-0.0025
3518.00,-0.0025
3517.00,-0.0025
3516.00,-0.0025
3515.00,-0.0025
3514.00,-0.0025
3513.00,-0.0025
3512.00,-0.0025
3511.00,-0.0025
3510.00,-0.0025
3509.00,-0.0025
3508.00,-0.0025
3507.00,-0.0025
3506.00,-0.0025
3505.00,-0.0025
3504.00,-0.0025
3503.00,-0.0025
3502.00,-0.0025
3501.00,-0.0025
3500.00,-0.0025
3499.00,-0.0025
3498.00,-0.0025
3497.00,-0.0025
3496.00,-0.0026
3495.00,-0.0026
3494.00,-0.0026
3493.00,-0.0026
3492.00,-0.0026
3491.00,-0.0026
3490.00,-0.0026
3489.00,-0.0026
3488.00,-0.0026
3487.00,-0.0026
3486.00,-0.0026
3485.00,-0.0026
3484.00,-0.0026
3483.00,-0.0026
3482.00,-0.0026
3481.00,-0.0026
3480.00,-0.0026
3479.00,-0.0026
3478.00,-0.0026
3477.00,-0.0026
3476.00,-0.0026
3475.00,-0.0026
3474.00,-0.0026
3473.00,-0.0026
3472.00,-0.0026
3471.00,-0.0026
3470.00,-0.0026
3469.00,-0.0026
3468.00,-0.0026
3467.00,-0.0026
3466.00,-0.0026
3465.00,-0.0026
3464.00,-0.0026
3463.00,-0.0026
3462.00,-0.0026
3461.00,-0.0026
3460.00,-0.0026
3459.00,-0.0026
3458.00,-0.0026
3457.00,-0.0026
3456.00,-0.0026
3455.00,-0.0026
3454.00,-0.0026
3453.00,-0.0026
3452.00,-0.0026
3451.00,-0.0026
3450.00,-0.0026
3449.00,-0.0026
3448.00,-0.0026
3447.00,-0.0026
3446.00,-0.0026
3445.00,-0.0026
3444.00,-0.0026
3443.00,-0.0026
3442.00,-0.0026
3441.00,-0.0026
3440.00,-0.0026
3439.00,-0.0026
3438.00,-0.0026
3437.00,-0.0026
3436.00,-0.0026
3435.00,-0.0026
3434.00,-0.0026
3433.00,-0.0026
3432.00,-0.0026
3431.00,-0.0026
3430.00,-0.0026
3429.00,-0.0026
3428.00,-0.0026
3427.00,-0.0026
3426.00,-0.0026
3425.00,-0.0026
3424.00,-0.0026
3423.00,-0.0026
3422.00,-0.0026
3421.00,-0.0026
3420.00,-0.0026
3419.00,-0.0026
3418.00,-0.0026
3417.00,-0.0026
3416.00,-0.0026
3415.00,-0.0026
3414.00,-0.0026
3413.00,-0.0026
3412.00,-0.0026
3411.00,-0.0026
3410.00,-0.0026
3409.00,-0.0026
3408.00,-0.0026
3407.00,-0.0026
3406.00,-0.0026
3405.00,-0.0026
3404.00,-0.0026
3403.00,-0.0026
3402.00,-0.0026
3401.00,-0.0026
3400.00,-0.0026
3399.00,-0.0026
3398.00,-0.0026
3397.00,-0.0026
3396.00,-0.0026
3395.00,-0.0026
3394.00,-0.0026
3393.00,-0.0026
3392.00,-0.0026
3391.00,-0.0026
3390.00,-0.0026
3389.00,-0.0026
3388.00,-0.0026
3387.00,-0.0026
3386.00,-0.0026
3385.00,-0.0026
3384.00,-0.0026
3383.00,-0.0026
3382.00,-0.0026
3381.00,-0.0026
3380.00,-0.0026
3379.00,-0.0026
3378.00,-0.0026
3377.00,-0.0026
3376.00,-0.0026
3375.00,-0.0026
3374.00,-0.0026
3373.00,-0.0026
3372.00,-0.0026
3371.00,-0.0026
3370.00,-0.0026
3369.00,-0.0026
3368.00,-0.0026
3367.00,-0.0026
3366.00,-0.0026
3365.00,-0.0026
3364.00,-0.0026
3363.00,-0.0026
3362.00,-0.0026
3361.00,-0.0026
3360.00,-0.0026
3359.00,-0.0026
3358.00,-0.0026
3357.00,-0.0026
3356.00,-0.0026
3355.00,-0.0026
3354.00,-0.0026
3353.00,-0.0026
3352.00,-0.0026
3351.00,-0.0026
3350.00,-0.0026
3349.00,-0.0026
3348.00,-0.0026
3347.00,-0.0026
3346.00,-0.0026
3345.00,-0.0026
3344.00,-0.0026
3343.00,-0.0026
3342.00,-0.0026
3341.00,-0.0026
3340.00,-0.0026
3339.00,-0.0026
3338.00,-0.0026
3337.00,-0.0026
3336.00,-0.0026
3335.00,-0.0026
3334.00,-0.0026
3333.00,-0.0026
3332.00,-0.0026
3331.00,-0.0026
3330.00,-0.0026
3329.00,-0.0026
3328.00,-0.0026
3327.00,-0.0026
3326.00,-0.0026
3325.00,-0.0026
3324.00,-0.0026
3323.00,-0.0026
3322.00,-0.0026
3321.00,-0.0026
3320.00,-0.0026
3319.00,-0.0026
3318.00,-0.0026
3317.00,-0.0026
3316.00,-0.0026
3315.00,-0.0026
3314.00,-0.0026
3313.00,-0.0026
3312.00,-0.0026
3311.00,-0.0026
3310.00,-0.0026
3309.00,-0.0026
3308.00,-0.0026
3307.00,-0.0026
3306.00,-0.0026
3305.00,-0.0026
3304.00,-0.0026
3303.00,-0.0026
3302.00,-0.0026
3301.00,-0.0026
3300.00,-0.0026
3299.00,-0.0026
3298.00,-0.0026
3297.00,-0.0026
3296.00,-0.0026
3295.00,-0.0026
3294.00,-0.0026
3293.00,-0.0026
3292.00,-0.0026
3291.00,-0.0026
3290.00,-0.0026
3289.00,-0.0026
3288.00,-0.0026
3287.00,-0.0026
3286.00,-0.0026
3285.00,-0.0026
3284.00,-0.0026
3283.00,-0.0026
3282.00,-0.0026
3281.00,-0.0026
3280.00,-0.0026
3279.00,-0.0026
3278.00,-0.0026
3277.00,-0.0026
3276.00,-0.0026
3275.00,-0.0026
3274.00,-0.0026
3273.00,-0.0026
3272.00,-0.0026
3271.00,-0.0026
3270.00,-0.0026
3269.00,-0.0026
3268.00,-0.0026
3267.00,-0.0026
3266.00,-0.0026
3265.00,-0.0026
3264.00,-0.0026
3263.00,-0.0026
3262.00,-0.0026
3261.00,-0.0026
3260.00,-0.0026
3259.00,-0.0026
3258.00,-0.0026
3257.00,-0.0026
3256.00,-0.0026
3255.00,-0.0026
3254.00,-0.0026
3253.00,-0.0026
3252.00,-0.0026
3251.00,-0.0026
3250.00,-0.0026
3249.00,-0.0026
3248.00,-0.0026
3247.00,-0.0026
3246.00,-0.0026
3245.00,-0.0026
3244.00,-0.0026
3243.00,-0.0026
3242.00,-0.0026
3241.00,-0.0026
3240.00,-0.0026
3239.00,-0.0026
3238.00,-0.0026
3237.00,-0.0026
3236.00,-0.0026
3235.00,-0.0026
3234.00,-0.0026
3233.00,-0.0026
3232.00,-0.0026
3231.00,-0.0026
3230.00,-0.0026
3229.00,-0.0026
3228.00,-0.0026
3227.00,-0.0026
3226.00,-0.0026
3225.00,-0.0026
3224.00,-0.0026
3223.00,-0.0026
3222.00,-0.0026
3221.00,-0.0026
3220.00,-0.0026
3219.00,-0.0026
3218.00,-0.0026
3217.00,-0.0026
3216.00,-0.0026
3215.00,-0.0026
3214.00,-0.0026
3213.00,-0.0026
3212.00,-0.0026
3211.00,-0.0026
3210.00,-0.0026
3209.00,-0.0026
3208.00,-0.0026
3207.00,-0.0026
3206.00,-0.0026
3205.00,-0.0026
3204.00,-0.0026
3203.00,-0.0026
3202.00,-0.0026
3201.00,-0.0026
3200.00,-0.0026
3199.00,-0.0026
3198.00,-0.0026
3197.00,-0.0026
3196.00,-0.0026
3195.00,-0.0026
3194.00,-0.0026
3193.00,-0.0026
3192.00,-0.0026
3191.00,-0.0026
3190.00,-0.0026
3189.00,-0.0026
3188.00,-0.0026
3187.00,-0.0026
3186.00,-0.0026
3185.00,-0.0026
3184.00,-0.0026
3183.00,-0.0026
3182.00,-0.0026
3181.00,-0.0026
3180.00,-0.0025
3179.00,-0.0025
3178.00,-0.0025
3177.00,-0.0025
3176.00,-0.0025
3175.00,-0.0025
3174.00,-0.0025
3173.00,-0.0026
3172.00,-0.0026
3171.00,-0.0026
3170.00,-0.0025
3169.00,-0.0025
3168.00,-0.0025
3167.00,-0.0025
3166.00,-0.0025
3165.00,-0.0025
3164.00,-0.0025
3163.00,-0.0025
3162.00,-0.0025
3161.00,-0.0025
3160.00,-0.0025
3159.00,-0.0025
3158.00,-0.0025
3157.00,-0.0025
3156.00,-0.0025
3155.00,-0.0025
3154.00,-0.0025
3153.00,-0.0025
3152.00,-0.0025
3151.00,-0.0025
3150.00,-0.0025
3149.00,-0.0025
3148.00,-0.0025
3147.00,-0.0025
3146.00,-0.0025
3145.00,-0.0025
3144.00,-0.0025
3143.00,-0.0025
3142.00,-0.0025
3141.00,-0.0025
3140.00,-0.0025
3139.00,-0.0025
3138.00,-0.0025
3137.00,-0.0025
3136.00,-0.0025
3135.00,-0.0025
3134.00,-0.0025
3133.00,-0.0025
3132.00,-0.0025
3131.00,-0.0025
3130.00,-0.0025
3129.00,-0.0025
3128.00,-0.0025
3127.00,-0.0025
3126.00,-0.0025
3125.00,-0.0025
3124.00,-0.0025
3123.00,-0.0025
3122.00,-0.0025
3121.00,-0.0025
3120.00,-0.0025
3119.00,-0.0025
3118.00,-0.0025
3117.00,-0.0025
3116.00,-0.0025
3115.00,-0.0025
3114.00,-0.0025
3113.00,-0.0025
3112.00,-0.0025
3111.00,-0.0025
3110.00,-0.0025
3109.00,-0.0025
3108.00,-0.0025
3107.00,-0.0025
3106.00,-0.0025
3105.00,-0.0025
3104.00,-0.0025
3103.00,-0.0025
3102.00,-0.0025
3101.00,-0.0025
3100.00,-0.0025
3099.00,-0.0025
3098.00,-0.0025
3097.00,-0.0025
3096.00,-0.0025
3095.00,-0.0025
3094.00,-0.0025
3093.00,-0.0025
3092.00,-0.0025
3091.00,-0.0025
3090.00,-0.0025
3089.00,-0.0025
3088.00,-0.0025
3087.00,-0.0025
3086.00,-0.0025
3085.00,-0.0025
3084.00,-0.0025
3083.00,-0.0025
3082.00,-0.0025
3081.00,-0.0025
3080.00,-0.0024
3079.00,-0.0024
3078.00,-0.0024
3077.00,-0.0025
3076.00,-0.0025
3075.00,-0.0025
3074.00,-0.0025
3073.00,-0.0025
3072.00,-0.0025
3071.00,-0.0025
3070.00,-0.0025
3069.00,-0.0025
3068.00,-0.0025
3067.00,-0.0025
3066.00,-0.0025
3065.00,-0.0025
3064.00,-0.0025
3063.00,-0.0025
3062.00,-0.0025
3061.00,-0.0025
3060.00,-0.0025
3059.00,-0.0025
3058.00,-0.0025
3057.00,-0.0025
3056.00,-0.0025
3055.00,-0.0024
3054.00,-0.0024
3053.00,-0.0024
3052.00,-0.0024
3051.00,-0.0024
3050.00,-0.0024
3049.00,-0.0024
3048.00,-0.0024
3047.00,-0.0024
3046.00,-0.0024
3045.00,-0.0024
3044.00,-0.0024
3043.00,-0.0024
3042.00,-0.0024
3041.00,-0.0024
3040.00,-0.0024
3039.00,-0.0024
3038.00,-0.0024
3037.00,-0.0024
3036.00,-0.0024
3035.00,-0.0024
3034.00,-0.0024
3033.00,-0.0024
3032.00,-0.0024
3031.00,-0.0024
3030.00,-0.0024
3029.00,-0.0024
3028.00,-0.0024
3027.00,-0.0024
3026.00,-0.0024
3025.00,-0.0024
3024.00,-0.0024
3023.00,-0.0024
3022.00,-0.0024
3021.00,-0.0024
3020.00,-0.0024
3019.00,-0.0024
3018.00,-0.0024
3017.00,-0.0024
3016.00,-0.0024
3015.00,-0.0024
3014.00,-0.0024
3013.00,-0.0024
3012.00,-0.0024
3011.00,-0.0024
3010.00,-0.0024
3009.00,-0.0024
3008.00,-0.0024
3007.00,-0.0024
3006.00,-0.0024
3005.00,-0.0024
3004.00,-0.0024
3003.00,-0.0024
3002.00,-0.0024
3001.00,-0.0024
3000.00,-0.0024
2999.00,-0.0024
2998.00,-0.0024
2997.00,-0.0024
2996.00,-0.0024
2995.00,-0.0024
2994.00,-0.0024
2993.00,-0.0024
2992.00,-0.0024
2991.00,-0.0024
2990.00,-0.0024
2989.00,-0.0024
2988.00,-0.0024
2987.00,-0.0024
2986.00,-0.0024
2985.00,-0.0024
2984.00,-0.0024
2983.00,-0.0024
2982.00,-0.0024
2981.00,-0.0024
2980.00,-0.0024
2979.00,-0.0024
2978.00,-0.0024
2977.00,-0.0024
2976.00,-0.0024
2975.00,-0.0024
2974.00,-0.0024
2973.00,-0.0024
2972.00,-0.0024
2971.00,-0.0024
2970.00,-0.0024
2969.00,-0.0024
2968.00,-0.0024
2967.00,-0.0024
2966.00,-0.0024
2965.00,-0.0024
2964.00,-0.0024
2963.00,-0.0024
2962.00,-0.0024
2961.00,-0.0024
2960.00,-0.0024
2959.00,-0.0024
2958.00,-0.0024
2957.00,-0.0024
2956.00,-0.0024
2955.00,-0.0024
2954.00,-0.0024
2953.00,-0.0024
2952.00,-0.0024
2951.00,-0.0024
2950.00,-0.0024
2949.00,-0.0024
2948.00,-0.0024
2947.00,-0.0024
2946.00,-0.0024
2945.00,-0.0023
2944.00,-0.0023
2943.00,-0.0023
2942.00,-0.0023
2941.00,-0.0023
2940.00,-0.0023
2939.00,-0.0023
2938.00,-0.0023
2937.00,-0.0023
2936.00,-0.0023
2935.00,-0.0023
2934.00,-0.0023
2933.00,-0.0023
2932.00,-0.0023
2931.00,-0.0024
2930.00,-0.0024
2929.00,-0.0024
2928.00,-0.0024
2927.00,-0.0024
2926.00,-0.0024
2925.00,-0.0025
2924.00,-0.0025
2923.00,-0.0025
2922.00,-0.0025
2921.00,-0.0025
2920.00,-0.0025
2919.00,-0.0025
2918.00,-0.0025
2917.00,-0.0025
2916.00,-0.0025
2915.00,-0.0025
2914.00,-0.0025
2913.00,-0.0025
2912.00,-0.0024
2911.00,-0.0024
2910.00,-0.0024
2909.00,-0.0024
2908.00,-0.0024
2907.00,-0.0024
2906.00,-0.0024
2905.00,-0.0024
2904.00,-0.0024
2903.00,-0.0024
2902.00,-0.0024
2901.00,-0.0024
2900.00,-0.0024
2899.00,-0.0024
2898.00,-0.0024
2897.00,-0.0024
2896.00,-0.0024
2895.00,-0.0024
2894.00,-0.0024
2893.00,-0.0024
2892.00,-0.0024
2891.00,-0.0024
2890.00,-0.0024
2889.00,-0.0024
2888.00,-0.0024
2887.00,-0.0024
2886.00,-0.0024
2885.00,-0.0024
2884.00,-0.0024
2883.00,-0.0024
2882.00,-0.0024
2881.00,-0.0024
2880.00,-0.0023
2879.00,-0.0023
2878.00,-0.0023
2877.00,-0.0023
2876.00,-0.0023
2875.00,-0.0023
2874.00,-0.0023
2873.00,-0.0023
2872.00,-0.0023
2871.00,-0.0023
2870.00,-0.0023
2869.00,-0.0023
2868.00,-0.0023
2867.00,-0.0023
2866.00,-0.0023
2865.00,-0.0024
2864.00,-0.0023
2863.00,-0.0023
2862.00,-0.0024
2861.00,-0.0024
2860.00,-0.0024
2859.00,-0.0024
2858.00,-0.0024
2857.00,-0.0024
2856.00,-0.0024
2855.00,-0.0025
2854.00,-0.0025
2853.00,-0.0025
2852.00,-0.0025
2851.00,-0.0025
2850.00,-0.0025
2849.00,-0.0025
2848.00,-0.0025
2847.00,-0.0025
2846.00,-0.0025
2845.00,-0.0024
2844.00,-0.0024
2843.00,-0.0024
2842.00,-0.0024
2841.00,-0.0024
2840.00,-0.0024
2839.00,-0.0024
2838.00,-0.0023
2837.00,-0.0023
2836.00,-0.0023
2835.00,-0.0023
2834.00,-0.0023
2833.00,-0.0023
2832.00,-0.0023
2831.00,-0.0023
2830.00,-0.0023
2829.00,-0.0023
2828.00,-0.0023
2827.00,-0.0023
2826.00,-0.0023
2825.00,-0.0023
2824.00,-0.0023
2823.00,-0.0023
2822.00,-0.0023
2821.00,-0.0023
2820.00,-0.0023
2819.00,-0.0023
2818.00,-0.0023
2817.00,-0.0023
2816.00,-0.0023
2815.00,-0.0023
2814.00,-0.0023
2813.00,-0.0023
2812.00,-0.0023
2811.00,-0.0023
2810.00,-0.0023
2809.00,-0.0023
2808.00,-0.0023
2807.00,-0.0023
2806.00,-0.0023
2805.00,-0.0023
2804.00,-0.0023
2803.00,-0.0023
2802.00,-0.0023
2801.00,-0.0023
2800.00,-0.0023
2799.00,-0.0023
2798.00,-0.0023
2797.00,-0.0023
2796.00,-0.0023
2795.00,-0.0023
2794.00,-0.0023
2793.00,-0.0023
2792.00,-0.0023
2791.00,-0.0023
2790.00,-0.0023
2789.00,-0.0023
2788.00,-0.0023
2787.00,-0.0023
2786.00,-0.0023
2785.00,-0.0023
2784.00,-0.0023
2783.00,-0.0023
2782.00,-0.0023
2781.00,-0.0023
2780.00,-0.0023
2779.00,-0.0023
2778.00,-0.0023
2777.00,-0.0023
2776.00,-0.0023
2775.00,-0.0023
2774.00,-0.0023
2773.00,-0.0023
2772.00,-0.0023
2771.00,-0.0023
2770.00,-0.0023
2769.00,-0.0023
2768.00,-0.0023
2767.00,-0.0023
2766.00,-0.0023
2765.00,-0.0023
2764.00,-0.0023
2763.00,-0.0023
2762.00,-0.0023
2761.00,-0.0023
2760.00,-0.0023
2759.00,-0.0023
2758.00,-0.0023
2757.00,-0.0023
