Created as New Dataset,Sample 006 By Analyst Date Thursday, March 27 2025
cm-1,A
4000.00,-0.0485
3999.00,-0.0484
3998.00,-0.0484
3997.00,-0.0484
3996.00,-0.0484
3995.00,-0.0484
3994.00,-0.0484
3993.00,-0.0484
3992.00,-0.0483
3991.00,-0.0483
3990.00,-0.0483
3989.00,-0.0483
3988.00,-0.0483
3987.00,-0.0483
3986.00,-0.0483
3985.00,-0.0483
3984.00,-0.0483
3983.00,-0.0483
3982.00,-0.0483
3981.00,-0.0482
3980.00,-0.0482
3979.00,-0.0482
3978.00,-0.0482
3977.00,-0.0482
3976.00,-0.0482
3975.00,-0.0481
3974.00,-0.0481
3973.00,-0.0481
3972.00,-0.0481
3971.00,-0.0481
3970.00,-0.0481
3969.00,-0.0481
3968.00,-0.0481
3967.00,-0.0481
3966.00,-0.0481
3965.00,-0.0481
3964.00,-0.0481
3963.00,-0.0481
3962.00,-0.0481
3961.00,-0.0481
3960.00,-0.0481
3959.00,-0.0481
3958.00,-0.0481
3957.00,-0.0481
3956.00,-0.0481
3955.00,-0.0481
3954.00,-0.0481
3953.00,-0.0481
3952.00,-0.0481
3951.00,-0.0480
3950.00,-0.0480
3949.00,-0.0480
3948.00,-0.0480
3947.00,-0.0480
3946.00,-0.0480
3945.00,-0.0479
3944.00,-0.0479
3943.00,-0.0480
3942.00,-0.0481
3941.00,-0.0481
3940.00,-0.0481
3939.00,-0.0481
3938.00,-0.0480
3937.00,-0.0480
3936.00,-0.0480
3935.00,-0.0479
3934.00,-0.0478
3933.00,-0.0478
3932.00,-0.0478
3931.00,-0.0478
3930.00,-0.0478
3929.00,-0.0478
3928.00,-0.0478
3927.00,-0.0478
3926.00,-0.0477
3925.00,-0.0478
3924.00,-0.0478
3923.00,-0.0478
3922.00,-0.0477
3921.00,-0.0476
3920.00,-0.0475
3919.00,-0.0475
3918.00,-0.0475
3917.00,-0.0476
3916.00,-0.0476
3915.00,-0.0477
3914.00,-0.0478
3913.00,-0.0478
3912.00,-0.0478
3911.00,-0.0479
3910.00,-0.0479
3909.00,-0.0478
3908.00,-0.0478
3907.00,-0.0477
3906.00,-0.0475
3905.00,-0.0473
3904.00,-0.0472
3903.00,-0.0470
3902.00,-0.0469
3901.00,-0.0468
3900.00,-0.0468
3899.00,-0.0470
3898.00,-0.0472
3897.00,-0.0473
3896.00,-0.0473
3895.00,-0.0474
3894.00,-0.0475
3893.00,-0.0476
3892.00,-0.0476
3891.00,-0.0476
3890.00,-0.0476
3889.00,-0.0476
3888.00,-0.0474
3887.00,-0.0471
3886.00,-0.0470
3885.00,-0.0471
3884.00,-0.0472
3883.00,-0.0472
3882.00,-0.0470
3881.00,-0.0470
3880.00,-0.0472
3879.00,-0.0474
3878.00,-0.0474
3877.00,-0.0473
3876.00,-0.0471
3875.00,-0.0470
3874.00,-0.0472
3873.00,-0.0474
3872.00,-0.0473
3871.00,-0.0470
3870.00,-0.0467
3869.00,-0.0468
3868.00,-0.0470
3867.00,-0.0469
3866.00,-0.0466
3865.00,-0.0466
3864.00,-0.0468
3863.00,-0.0471
3862.00,-0.0471
3861.00,-0.0470
3860.00,-0.0470
3859.00,-0.0471
3858.00,-0.0474
3857.00,-0.0477
3856.00,-0.0478
3855.00,-0.0476
3854.00,-0.0472
3853.00,-0.0470
3852.00,-0.0469
3851.00,-0.0468
3850.00,-0.0466
3849.00,-0.0466
3848.00,-0.0468
3847.00,-0.0471
3846.00,-0.0472
3845.00,-0.0473
3844.00,-0.0472
3843.00,-0.0472
3842.00,-0.0472
3841.00,-0.0471
3840.00,-0.0470
3839.00,-0.0469
3838.00,-0.0468
3837.00,-0.0467
3836.00,-0.0467
3835.00,-0.0468
3834.00,-0.0468
3833.00,-0.0469
3832.00,-0.0469
3831.00,-0.0471
3830.00,-0.0472
3829.00,-0.0472
3828.00,-0.0472
3827.00,-0.0471
3826.00,-0.0472
3825.00,-0.0472
3824.00,-0.0471
3823.00,-0.0469
3822.00,-0.0466
3821.00,-0.0466
3820.00,-0.0469
3819.00,-0.0470
3818.00,-0.0468
3817.00,-0.0465
3816.00,-0.0465
3815.00,-0.0468
3814.00,-0.0471
3813.00,-0.0471
3812.00,-0.0470
3811.00,-0.0471
3810.00,-0.0473
3809.00,-0.0473
3808.00,-0.0472
3807.00,-0.0470
3806.00,-0.0470
3805.00,-0.0470
3804.00,-0.0469
3803.00,-0.0466
3802.00,-0.0465
3801.00,-0.0466
3800.00,-0.0468
3799.00,-0.0468
3798.00,-0.0467
3797.00,-0.0467
3796.00,-0.0469
3795.00,-0.0472
3794.00,-0.0474
3793.00,-0.0474
3792.00,-0.0474
3791.00,-0.0475
3790.00,-0.0476
3789.00,-0.0476
3788.00,-0.0476
3787.00,-0.0476
3786.00,-0.0476
3785.00,-0.0476
3784.00,-0.0475
3783.00,-0.0475
3782.00,-0.0474
3781.00,-0.0473
3780.00,-0.0473
3779.00,-0.0474
3778.00,-0.0475
3777.00,-0.0475
3776.00,-0.0475
3775.00,-0.0474
3774.00,-0.0474
3773.00,-0.0474
3772.00,-0.0474
3771.00,-0.0473
3770.00,-0.0472
3769.00,-0.0472
3768.00,-0.0472
3767.00,-0.0471
3766.00,-0.0470
3765.00,-0.0470
3764.00,-0.0471
3763.00,-0.0471
3762.00,-0.0470
3761.00,-0.0469
3760.00,-0.0469
3759.00,-0.0469
3758.00,-0.0469
3757.00,-0.0469
3756.00,-0.0468
3755.00,-0.0468
3754.00,-0.0466
3753.00,-0.0465
3752.00,-0.0464
3751.00,-0.0463
3750.00,-0.0460
3749.00,-0.0459
3748.00,-0.0459
3747.00,-0.0459
3746.00,-0.0458
3745.00,-0.0457
3744.00,-0.0458
3743.00,-0.0460
3742.00,-0.0460
3741.00,-0.0458
3740.00,-0.0457
3739.00,-0.0457
3738.00,-0.0457
3737.00,-0.0456
3736.00,-0.0456
3735.00,-0.0458
3734.00,-0.0460
3733.00,-0.0460
3732.00,-0.0460
3731.00,-0.0461
3730.00,-0.0462
3729.00,-0.0463
3728.00,-0.0463
3727.00,-0.0463
3726.00,-0.0464
3725.00,-0.0465
3724.00,-0.0465
3723.00,-0.0465
3722.00,-0.0465
3721.00,-0.0466
3720.00,-0.0467
3719.00,-0.0468
3718.00,-0.0468
3717.00,-0.0468
3716.00,-0.0468
3715.00,-0.0467
3714.00,-0.0465
3713.00,-0.0464
3712.00,-0.0463
3711.00,-0.0464
3710.00,-0.0464
3709.00,-0.0465
3708.00,-0.0465
3707.00,-0.0466
3706.00,-0.0467
3705.00,-0.0468
3704.00,-0.0469
3703.00,-0.0470
3702.00,-0.0471
3701.00,-0.0472
3700.00,-0.0473
3699.00,-0.0473
3698.00,-0.0473
3697.00,-0.0473
3696.00,-0.0474
3695.00,-0.0474
3694.00,-0.0474
3693.00,-0.0473
3692.00,-0.0473
3691.00,-0.0473
3690.00,-0.0473
3689.00,-0.0472
3688.00,-0.0471
3687.00,-0.0471
3686.00,-0.0472
3685.00,-0.0472
3684.00,-0.0473
3683.00,-0.0475
3682.00,-0.0476
3681.00,-0.0476
3680.00,-0.0476
3679.00,-0.0476
3678.00,-0.0475
3677.00,-0.0472
3676.00,-0.0469
3675.00,-0.0469
3674.00,-0.0470
3673.00,-0.0469
3672.00,-0.0466
3671.00,-0.0464
3670.00,-0.0466
3669.00,-0.0470
3668.00,-0.0473
3667.00,-0.0473
3666.00,-0.0474
3665.00,-0.0475
3664.00,-0.0476
3663.00,-0.0478
3662.00,-0.0479
3661.00,-0.0479
3660.00,-0.0479
3659.00,-0.0478
3658.00,-0.0477
3657.00,-0.0475
3656.00,-0.0474
3655.00,-0.0473
3654.00,-0.0472
3653.00,-0.0468
3652.00,-0.0465
3651.00,-0.0462
3650.00,-0.0462
3649.00,-0.0462
3648.00,-0.0462
3647.00,-0.0463
3646.00,-0.0465
3645.00,-0.0466
3644.00,-0.0468
3643.00,-0.0470
3642.00,-0.0473
3641.00,-0.0475
3640.00,-0.0476
3639.00,-0.0476
3638.00,-0.0476
3637.00,-0.0476
3636.00,-0.0475
3635.00,-0.0474
3634.00,-0.0473
3633.00,-0.0473
3632.00,-0.0473
3631.00,-0.0470
3630.00,-0.0468
3629.00,-0.0467
3628.00,-0.0468
3627.00,-0.0468
3626.00,-0.0468
3625.00,-0.0467
3624.00,-0.0468
3623.00,-0.0469
3622.00,-0.0470
3621.00,-0.0470
3620.00,-0.0470
3619.00,-0.0470
3618.00,-0.0469
3617.00,-0.0468
3616.00,-0.0467
3615.00,-0.0466
3614.00,-0.0466
3613.00,-0.0467
3612.00,-0.0468
3611.00,-0.0468
3610.00,-0.0467
3609.00,-0.0466
3608.00,-0.0467
3607.00,-0.0469
3606.00,-0.0470
3605.00,-0.0471
3604.00,-0.0471
3603.00,-0.0472
3602.00,-0.0472
3601.00,-0.0473
3600.00,-0.0473
3599.00,-0.0473
3598.00,-0.0473
3597.00,-0.0472
3596.00,-0.0472
3595.00,-0.0472
3594.00,-0.0473
3593.00,-0.0473
3592.00,-0.0472
3591.00,-0.0471
3590.00,-0.0470
3589.00,-0.0469
3588.00,-0.0469
3587.00,-0.0471
3586.00,-0.0472
3585.00,-0.0472
3584.00,-0.0473
3583.00,-0.0474
3582.00,-0.0475
3581.00,-0.0476
3580.00,-0.0478
3579.00,-0.0478
3578.00,-0.0479
3577.00,-0.0479
3576.00,-0.0479
3575.00,-0.0479
3574.00,-0.0479
3573.00,-0.0479
3572.00,-0.0478
3571.00,-0.0476
3570.00,-0.0474
3569.00,-0.0471
3568.00,-0.0470
3567.00,-0.0471
3566.00,-0.0472
3565.00,-0.0473
3564.00,-0.0473
3563.00,-0.0474
3562.00,-0.0475
3561.00,-0.0476
3560.00,-0.0478
3559.00,-0.0479
3558.00,-0.0479
3557.00,-0.0479
3556.00,-0.0479
3555.00,-0.0479
3554.00,-0.0478
3553.00,-0.0478
3552.00,-0.0478
3551.00,-0.0478
3550.00,-0.0477
3549.00,-0.0476
3548.00,-0.0475
3547.00,-0.0475
3546.00,-0.0475
3545.00,-0.0476
3544.00,-0.0476
3543.00,-0.0477
3542.00,-0.0477
3541.00,-0.0478
3540.00,-0.0478
3539.00,-0.0478
3538.00,-0.0479
3537.00,-0.0479
3536.00,-0.0479
3535.00,-0.0479
3534.00,-0.0479
3533.00,-0.0479
3532.00,-0.0479
3531.00,-0.0478
3530.00,-0.0478
3529.00,-0.0478
3528.00,-0.0478
3527.00,-0.0477
3526.00,-0.0477
3525.00,-0.0477
3524.00,-0.0477
3523.00,-0.0478
3522.00,-0.0478
3521.00,-0.0479
3520.00,-0.0479
3519.00,-0.0479
3518.00,-0.0480
3517.00,-0.0480
3516.00,-0.0480
3515.00,-0.0480
3514.00,-0.0480
3513.00,-0.0480
3512.00,-0.0479
3511.00,-0.0479
3510.00,-0.0479
3509.00,-0.0479
3508.00,-0.0478
3507.00,-0.0478
3506.00,-0.0477
3505.00,-0.0477
3504.00,-0.0477
3503.00,-0.0477
3502.00,-0.0478
3501.00,-0.0478
3500.00,-0.0478
3499.00,-0.0477
3498.00,-0.0478
3497.00,-0.0478
3496.00,-0.0478
3495.00,-0.0479
3494.00,-0.0479
3493.00,-0.0479
3492.00,-0.0479
3491.00,-0.0479
3490.00,-0.0479
3489.00,-0.0479
3488.00,-0.0479
3487.00,-0.0479
3486.00,-0.0479
3485.00,-0.0479
3484.00,-0.0479
3483.00,-0.0479
3482.00,-0.0479
3481.00,-0.0480
3480.00,-0.0480
3479.00,-0.0480
3478.00,-0.0480
3477.00,-0.0480
3476.00,-0.0481
3475.00,-0.0481
3474.00,-0.0481
3473.00,-0.0482
3472.00,-0.0482
3471.00,-0.0482
3470.00,-0.0482
3469.00,-0.0482
3468.00,-0.0482
3467.00,-0.0482
3466.00,-0.0482
3465.00,-0.0482
3464.00,-0.0482
3463.00,-0.0482
3462.00,-0.0482
3461.00,-0.0482
3460.00,-0.0482
3459.00,-0.0482
3458.00,-0.0482
3457.00,-0.0482
3456.00,-0.0482
3455.00,-0.0482
3454.00,-0.0482
3453.00,-0.0482
3452.00,-0.0482
3451.00,-0.0481
3450.00,-0.0481
3449.00,-0.0481
3448.00,-0.0480
3447.00,-0.0481
3446.00,-0.0481
3445.00,-0.0481
3444.00,-0.0480
3443.00,-0.0480
3442.00,-0.0481
3441.00,-0.0481
3440.00,-0.0481
3439.00,-0.0481
3438.00,-0.0482
3437.00,-0.0482
3436.00,-0.0482
3435.00,-0.0482
3434.00,-0.0482
3433.00,-0.0482
3432.00,-0.0482
3431.00,-0.0483
3430.00,-0.0483
3429.00,-0.0483
3428.00,-0.0483
3427.00,-0.0483
3426.00,-0.0483
3425.00,-0.0483
3424.00,-0.0483
3423.00,-0.0483
3422.00,-0.0483
3421.00,-0.0483
3420.00,-0.0483
3419.00,-0.0483
3418.00,-0.0483
3417.00,-0.0483
3416.00,-0.0483
3415.00,-0.0483
3414.00,-0.0483
3413.00,-0.0483
3412.00,-0.0483
3411.00,-0.0482
3410.00,-0.0482
3409.00,-0.0482
3408.00,-0.0482
3407.00,-0.0482
3406.00,-0.0481
3405.00,-0.0481
3404.00,-0.0481
3403.00,-0.0481
3402.00,-0.0480
3401.00,-0.0480
3400.00,-0.0480
3399.00,-0.0480
3398.00,-0.0479
3397.00,-0.0479
3396.00,-0.0479
3395.00,-0.0479
3394.00,-0.0478
3393.00,-0.0478
3392.00,-0.0478
3391.00,-0.0478
3390.00,-0.0478
3389.00,-0.0478
3388.00,-0.0478
3387.00,-0.0478
3386.00,-0.0478
3385.00,-0.0478
3384.00,-0.0478
3383.00,-0.0478
3382.00,-0.0478
3381.00,-0.0478
3380.00,-0.0478
3379.00,-0.0478
3378.00,-0.0478
3377.00,-0.0478
3376.00,-0.0478
3375.00,-0.0478
3374.00,-0.0478
3373.00,-0.0479
3372.00,-0.0479
3371.00,-0.0479
3370.00,-0.0479
3369.00,-0.0479
3368.00,-0.0479
3367.00,-0.0478
3366.00,-0.0478
3365.00,-0.0478
3364.00,-0.0478
3363.00,-0.0478
3362.00,-0.0478
3361.00,-0.0478
3360.00,-0.0478
3359.00,-0.0478
3358.00,-0.0478
3357.00,-0.0478
3356.00,-0.0478
3355.00,-0.0478
3354.00,-0.0478
3353.00,-0.0478
3352.00,-0.0477
3351.00,-0.0477
3350.00,-0.0477
3349.00,-0.0477
3348.00,-0.0477
3347.00,-0.0477
3346.00,-0.0477
3345.00,-0.0477
3344.00,-0.0477
3343.00,-0.0477
3342.00,-0.0477
3341.00,-0.0477
3340.00,-0.0477
3339.00,-0.0477
3338.00,-0.0477
3337.00,-0.0477
3336.00,-0.0477
3335.00,-0.0477
3334.00,-0.0478
3333.00,-0.0478
3332.00,-0.0478
3331.00,-0.0478
3330.00,-0.0478
3329.00,-0.0478
3328.00,-0.0478
3327.00,-0.0478
3326.00,-0.0478
3325.00,-0.0479
3324.00,-0.0479
3323.00,-0.0479
3322.00,-0.0479
3321.00,-0.0480
3320.00,-0.0480
3319.00,-0.0480
3318.00,-0.0480
3317.00,-0.0480
3316.00,-0.0480
3315.00,-0.0480
3314.00,-0.0481
3313.00,-0.0481
3312.00,-0.0481
3311.00,-0.0481
3310.00,-0.0481
3309.00,-0.0481
3308.00,-0.0482
3307.00,-0.0482
3306.00,-0.0482
3305.00,-0.0482
3304.00,-0.0482
3303.00,-0.0483
3302.00,-0.0483
3301.00,-0.0483
3300.00,-0.0482
3299.00,-0.0482
3298.00,-0.0482
3297.00,-0.0482
3296.00,-0.0481
3295.00,-0.0481
3294.00,-0.0481
3293.00,-0.0480
3292.00,-0.0480
3291.00,-0.0480
3290.00,-0.0480
3289.00,-0.0479
3288.00,-0.0479
3287.00,-0.0479
3286.00,-0.0479
3285.00,-0.0479
3284.00,-0.0478
3283.00,-0.0478
3282.00,-0.0478
3281.00,-0.0478
3280.00,-0.0478
3279.00,-0.0478
3278.00,-0.0477
3277.00,-0.0477
3276.00,-0.0477
3275.00,-0.0477
3274.00,-0.0477
3273.00,-0.0477
3272.00,-0.0477
3271.00,-0.0477
3270.00,-0.0477
3269.00,-0.0477
3268.00,-0.0477
3267.00,-0.0477
3266.00,-0.0477
3265.00,-0.0477
3264.00,-0.0477
3263.00,-0.0477
3262.00,-0.0477
3261.00,-0.0477
3260.00,-0.0477
3259.00,-0.0477
3258.00,-0.0477
3257.00,-0.0477
3256.00,-0.0477
3255.00,-0.0477
3254.00,-0.0477
3253.00,-0.0477
3252.00,-0.0477
3251.00,-0.0477
3250.00,-0.0477
3249.00,-0.0477
3248.00,-0.0477
3247.00,-0.0477
3246.00,-0.0477
3245.00,-0.0477
3244.00,-0.0477
3243.00,-0.0477
3242.00,-0.0477
3241.00,-0.0477
3240.00,-0.0477
3239.00,-0.0477
3238.00,-0.0477
3237.00,-0.0477
3236.00,-0.0477
3235.00,-0.0477
3234.00,-0.0477
3233.00,-0.0477
3232.00,-0.0477
3231.00,-0.0477
3230.00,-0.0477
3229.00,-0.0477
3228.00,-0.0477
3227.00,-0.0477
3226.00,-0.0477
3225.00,-0.0478
3224.00,-0.0478
3223.00,-0.0478
3222.00,-0.0478
3221.00,-0.0478
3220.00,-0.0478
3219.00,-0.0478
3218.00,-0.0478
3217.00,-0.0479
3216.00,-0.0479
3215.00,-0.0479
3214.00,-0.0479
3213.00,-0.0479
3212.00,-0.0480
3211.00,-0.0480
3210.00,-0.0480
3209.00,-0.0480
3208.00,-0.0480
3207.00,-0.0480
3206.00,-0.0481
3205.00,-0.0481
3204.00,-0.0481
3203.00,-0.0481
3202.00,-0.0481
3201.00,-0.0481
3200.00,-0.0481
3199.00,-0.0481
3198.00,-0.0481
3197.00,-0.0481
3196.00,-0.0481
3195.00,-0.0481
3194.00,-0.0480
3193.00,-0.0480
3192.00,-0.0480
3191.00,-0.0480
3190.00,-0.0480
3189.00,-0.0480
3188.00,-0.0480
3187.00,-0.0480
3186.00,-0.0480
3185.00,-0.0480
3184.00,-0.0480
3183.00,-0.0479
3182.00,-0.0479
3181.00,-0.0479
3180.00,-0.0479
3179.00,-0.0479
3178.00,-0.0479
3177.00,-0.0479
3176.00,-0.0479
3175.00,-0.0479
3174.00,-0.0479
3173.00,-0.0479
3172.00,-0.0479
3171.00,-0.0479
3170.00,-0.0479
3169.00,-0.0479
3168.00,-0.0479
3167.00,-0.0479
3166.00,-0.0479
3165.00,-0.0479
3164.00,-0.0480
3163.00,-0.0480
3162.00,-0.0480
3161.00,-0.0480
3160.00,-0.0480
3159.00,-0.0480
3158.00,-0.0480
3157.00,-0.0480
3156.00,-0.0480
3155.00,-0.0480
3154.00,-0.0481
3153.00,-0.0481
3152.00,-0.0481
3151.00,-0.0481
3150.00,-0.0481
3149.00,-0.0481
3148.00,-0.0481
3147.00,-0.0481
3146.00,-0.0481
3145.00,-0.0481
3144.00,-0.0481
3143.00,-0.0481
3142.00,-0.0480
3141.00,-0.0480
3140.00,-0.0480
3139.00,-0.0480
3138.00,-0.0480
3137.00,-0.0480
3136.00,-0.0480
3135.00,-0.0480
3134.00,-0.0480
3133.00,-0.0480
3132.00,-0.0480
3131.00,-0.0480
3130.00,-0.0480
3129.00,-0.0480
3128.00,-0.0480
3127.00,-0.0480
3126.00,-0.0480
3125.00,-0.0480
3124.00,-0.0480
3123.00,-0.0480
3122.00,-0.0480
3121.00,-0.0480
3120.00,-0.0480
3119.00,-0.0480
3118.00,-0.0480
3117.00,-0.0480
3116.00,-0.0481
3115.00,-0.0481
3114.00,-0.0481
3113.00,-0.0481
3112.00,-0.0482
3111.00,-0.0482
3110.00,-0.0482
3109.00,-0.0482
3108.00,-0.0482
3107.00,-0.0483
3106.00,-0.0483
3105.00,-0.0483
3104.00,-0.0483
3103.00,-0.0483
3102.00,-0.0483
3101.00,-0.0483
3100.00,-0.0483
3099.00,-0.0483
3098.00,-0.0483
3097.00,-0.0483
3096.00,-0.0483
3095.00,-0.0483
3094.00,-0.0483
3093.00,-0.0483
3092.00,-0.0483
3091.00,-0.0483
3090.00,-0.0483
3089.00,-0.0483
3088.00,-0.0483
3087.00,-0.0483
3086.00,-0.0483
3085.00,-0.0483
3084.00,-0.0483
3083.00,-0.0483
3082.00,-0.0483
3081.00,-0.0483
3080.00,-0.0483
3079.00,-0.0482
3078.00,-0.0482
3077.00,-0.0482
3076.00,-0.0482
3075.00,-0.0483
3074.00,-0.0483
3073.00,-0.0483
3072.00,-0.0483
3071.00,-0.0483
3070.00,-0.0483
3069.00,-0.0482
3068.00,-0.0482
3067.00,-0.0482
3066.00,-0.0482
3065.00,-0.0483
3064.00,-0.0483
3063.00,-0.0483
3062.00,-0.0483
3061.00,-0.0483
3060.00,-0.0483
3059.00,-0.0483
3058.00,-0.0483
3057.00,-0.0483
3056.00,-0.0484
3055.00,-0.0484
3054.00,-0.0484
3053.00,-0.0484
3052.00,-0.0484
3051.00,-0.0484
3050.00,-0.0484
3049.00,-0.0484
3048.00,-0.0484
3047.00,-0.0484
3046.00,-0.0484
3045.00,-0.0484
3044.00,-0.0484
3043.00,-0.0485
3042.00,-0.0485
3041.00,-0.0485
3040.00,-0.0485
3039.00,-0.0485
3038.00,-0.0484
3037.00,-0.0484
3036.00,-0.0484
3035.00,-0.0484
3034.00,-0.0484
3033.00,-0.0484
3032.00,-0.0483
3031.00,-0.0483
3030.00,-0.0483
3029.00,-0.0483
3028.00,-0.0483
3027.00,-0.0483
3026.00,-0.0483
3025.00,-0.0483
3024.00,-0.0483
3023.00,-0.0483
3022.00,-0.0483
3021.00,-0.0483
3020.00,-0.0483
3019.00,-0.0483
3018.00,-0.0483
3017.00,-0.0483
3016.00,-0.0483
3015.00,-0.0483
3014.00,-0.0483
3013.00,-0.0483
3012.00,-0.0483
3011.00,-0.0483
3010.00,-0.0483
3009.00,-0.0484
3008.00,-0.0484
3007.00,-0.0484
3006.00,-0.0484
3005.00,-0.0484
3004.00,-0.0484
3003.00,-0.0484
3002.00,-0.0484
3001.00,-0.0484
3000.00,-0.0484
2999.00,-0.0484
2998.00,-0.0484
2997.00,-0.0484
2996.00,-0.0484
2995.00,-0.0484
2994.00,-0.0484
2993.00,-0.0484
2992.00,-0.0484
2991.00,-0.0484
2990.00,-0.0484
2989.00,-0.0484
2988.00,-0.0484
2987.00,-0.0484
2986.00,-0.0484
2985.00,-0.0484
2984.00,-0.0483
2983.00,-0.0483
2982.00,-0.0483
2981.00,-0.0483
2980.00,-0.0483
2979.00,-0.0483
2978.00,-0.0483
2977.00,-0.0483
2976.00,-0.0483
2975.00,-0.0483
2974.00,-0.0483
2973.00,-0.0483
2972.00,-0.0483
2971.00,-0.0483
2970.00,-0.0483
2969.00,-0.0483
2968.00,-0.0483
2967.00,-0.0483
2966.00,-0.0483
2965.00,-0.0483
2964.00,-0.0483
2963.00,-0.0483
2962.00,-0.0483
2961.00,-0.0483
2960.00,-0.0483
2959.00,-0.0483
2958.00,-0.0483
2957.00,-0.0483
2956.00,-0.0483
2955.00,-0.0483
2954.00,-0.0483
2953.00,-0.0483
2952.00,-0.0483
2951.00,-0.0483
2950.00,-0.0483
2949.00,-0.0483
2948.00,-0.0483
2947.00,-0.0484
2946.00,-0.0484
2945.00,-0.0484
2944.00,-0.0484
2943.00,-0.0484
2942.00,-0.0484
2941.00,-0.0484
2940.00,-0.0484
2939.00,-0.0484
2938.00,-0.0484
2937.00,-0.0484
2936.00,-0.0484
2935.00,-0.0484
2934.00,-0.0484
2933.00,-0.0484
2932.00,-0.0484
2931.00,-0.0484
2930.00,-0.0484
2929.00,-0.0484
2928.00,-0.0484
2927.00,-0.0484
2926.00,-0.0484
2925.00,-0.0484
2924.00,-0.0484
2923.00,-0.0484
2922.00,-0.0484
2921.00,-0.0483
2920.00,-0.0483
2919.00,-0.0483
2918.00,-0.0483
2917.00,-0.0483
2916.00,-0.0483
2915.00,-0.0483
2914.00,-0.0483
2913.00,-0.0483
2912.00,-0.0482
2911.00,-0.0482
2910.00,-0.0482
2909.00,-0.0482
2908.00,-0.0482
2907.00,-0.0482
2906.00,-0.0482
2905.00,-0.0482
2904.00,-0.0482
2903.00,-0.0482
2902.00,-0.0482
2901.00,-0.0482
2900.00,-0.0483
2899.00,-0.0483
2898.00,-0.0483
2897.00,-0.0483
2896.00,-0.0483
2895.00,-0.0483
2894.00,-0.0483
2893.00,-0.0483
2892.00,-0.0483
2891.00,-0.0483
2890.00,-0.0484
2889.00,-0.0484
2888.00,-0.0484
2887.00,-0.0484
2886.00,-0.0484
2885.00,-0.0484
2884.00,-0.0484
2883.00,-0.0484
2882.00,-0.0484
2881.00,-0.0484
2880.00,-0.0484
2879.00,-0.0484
2878.00,-0.0484
2877.00,-0.0483
2876.00,-0.0483
2875.00,-0.0483
2874.00,-0.0483
2873.00,-0.0483
2872.00,-0.0483
2871.00,-0.0483
2870.00,-0.0483
2869.00,-0.0483
2868.00,-0.0483
2867.00,-0.0483
2866.00,-0.0482
2865.00,-0.0482
2864.00,-0.0482
2863.00,-0.0482
2862.00,-0.0482
2861.00,-0.0482
2860.00,-0.0482
2859.00,-0.0482
2858.00,-0.0482
2857.00,-0.0483
2856.00,-0.0483
2855.00,-0.0483
2854.00,-0.0483
2853.00,-0.0483
2852.00,-0.0483
2851.00,-0.0483
2850.00,-0.0483
2849.00,-0.0483
2848.00,-0.0483
2847.00,-0.0483
2846.00,-0.0483
2845.00,-0.0483
2844.00,-0.0483
2843.00,-0.0484
2842.00,-0.0484
2841.00,-0.0484
2840.00,-0.0484
2839.00,-0.0484
2838.00,-0.0484
2837.00,-0.0484
2836.00,-0.0484
2835.00,-0.0484
2834.00,-0.0484
2833.00,-0.0484
2832.00,-0.0484
2831.00,-0.0484
2830.00,-0.0484
2829.00,-0.0484
2828.00,-0.0484
2827.00,-0.0484
2826.00,-0.0484
2825.00,-0.0484
2824.00,-0.0484
2823.00,-0.0484
2822.00,-0.0484
2821.00,-0.0483
2820.00,-0.0483
2819.00,-0.0483
2818.00,-0.0483
2817.00,-0.0483
2816.00,-0.0483
2815.00,-0.0482
2814.00,-0.0482
2813.00,-0.0482
2812.00,-0.0482
2811.00,-0.0482
2810.00,-0.0482
2809.00,-0.0482
2808.00,-0.0481
2807.00,-0.0481
2806.00,-0.0481
2805.00,-0.0482
2804.00,-0.0482
2803.00,-0.0482
2802.00,-0.0482
2801.00,-0.0482
2800.00,-0.0482
2799.00,-0.0482
2798.00,-0.0482
2797.00,-0.0482
2796.00,-0.0482
2795.00,-0.0482
2794.00,-0.0482
2793.00,-0.0482
2792.00,-0.0482
2791.00,-0.0483
2790.00,-0.0483
2789.00,-0.0483
2788.00,-0.0483
2787.00,-0.0483
2786.00,-0.0483
2785.00,-0.0483
2784.00,-0.0483
2783.00,-0.0483
2782.00,-0.0483
2781.00,-0.0483
2780.00,-0.0483
2779.00,-0.0483
2778.00,-0.0483
2777.00,-0.0483
2776.00,-0.0483
2775.00,-0.0483
2774.00,-0.0483
2773.00,-0.0483
2772.00,-0.0483
2771.00,-0.0483
2770.00,-0.0483
2769.00,-0.0482
2768.00,-0.0482
2767.00,-0.0482
2766.00,-0.0482
2765.00,-0.0482
2764.00,-0.0482
2763.00,-0.0482
2762.00,-0.0482
2761.00,-0.0482
2760.00,-0.0482
2759.00,-0.0482
2758.00,-0.0481
2757.00,-0.0481
